Typical Measured Spectrum of Semrock LP02-1064RU Optical Filter	
For wavelengths between 320 and 1120 nm, values near or below 3e-7 (Optical Density 6.5) are measurement noise limited.
For wavelengths < 320 nm and > 1120 nm, values near or below 3e-6 (Optical Density 5.5) are measurement noise limited. 
Data format:  Wavelength (nm) <tab> Transmission (0 to 1)
250.0	0.04467
250.2	0.04316
250.4	0.04193
250.6	0.04075
250.8	0.0396
251.0	0.03862
251.2	0.03777
251.4	0.03694
251.6	0.036
251.8	0.03436
252.0	0.0328
252.2	0.03131
252.4	0.03024
252.6	0.02931
252.8	0.02841
253.0	0.02782
253.2	0.02778
253.4	0.02773
253.6	0.02769
253.8	0.00339
254.0	3.6704e-04
254.2	4.0143e-04
254.4	4.3903e-04
254.6	4.8016e-04
254.8	5.2514e-04
255.0	5.4259e-04
255.2	4.8777e-04
255.4	4.3849e-04
255.6	3.9419e-04
255.8	3.5437e-04
256.0	3.1857e-04
256.2	2.8638e-04
256.4	2.5745e-04
256.6	2.3144e-04
256.8	2.0806e-04
257.0	1.9018e-04
257.2	2.0572e-04
257.4	2.2252e-04
257.6	2.4069e-04
257.8	2.6035e-04
258.0	2.8162e-04
258.2	3.0462e-04
258.4	3.295e-04
258.6	3.5642e-04
258.8	3.8553e-04
259.0	4.1702e-04
259.2	2.9502e-04
259.4	1.9751e-04
259.6	1.3223e-04
259.8	8.8525e-05
260.0	5.9266e-05
260.2	5.2485e-05
260.4	4.648e-05
260.6	4.1161e-05
260.8	3.6452e-05
261.0	3.2281e-05
261.2	2.8588e-05
261.4	2.5317e-05
261.6	2.242e-05
261.8	1.9855e-05
262.0	1.7739e-05
262.2	1.6733e-05
262.4	1.5784e-05
262.6	1.4889e-05
262.8	1.4045e-05
263.0	1.3248e-05
263.2	1.2497e-05
263.4	1.1788e-05
263.6	1.1119e-05
263.8	1.0489e-05
264.0	9.894e-06
264.2	1.2522e-05
264.4	1.6147e-05
264.6	2.0823e-05
264.8	2.6852e-05
265.0	3.4627e-05
265.2	3.6898e-05
265.4	3.9318e-05
265.6	4.1896e-05
265.8	4.3228e-05
266.0	4.3346e-05
266.2	4.3464e-05
266.4	4.3582e-05
266.6	4.3701e-05
266.8	4.382e-05
267.0	4.3939e-05
267.2	4.4059e-05
267.4	4.4179e-05
267.6	4.4299e-05
267.8	4.3728e-05
268.0	4.1779e-05
268.2	3.9917e-05
268.4	3.8138e-05
268.6	3.6438e-05
268.8	3.4814e-05
269.0	3.3262e-05
269.2	3.1779e-05
269.4	3.0363e-05
269.6	2.901e-05
269.8	2.7227e-05
270.0	2.2555e-05
270.2	1.8685e-05
270.4	1.5479e-05
270.6	1.2823e-05
270.8	1.0623e-05
271.0	8.8001e-06
271.2	7.2901e-06
271.4	6.0393e-06
271.6	5.003e-06
271.8	4.1446e-06
272.0	4.0649e-06
272.2	4.0417e-06
272.4	4.0186e-06
272.6	3.9957e-06
272.8	3.9729e-06
273.0	3.9502e-06
273.2	3.9277e-06
273.4	3.9053e-06
273.6	3.883e-06
273.8	3.8608e-06
274.0	1.2975e-05
274.2	6.8422e-05
274.4	3.608e-04
274.6	0.0019
274.8	0.01003
275.0	0.0529
275.2	0.00769
275.4	0.00112
275.6	1.6276e-04
275.8	2.3671e-05
276.0	3.4427e-06
276.2	3.7911e-06
276.4	4.6969e-06
276.6	5.819e-06
276.8	7.2092e-06
277.0	8.9316e-06
277.2	1.1065e-05
277.4	1.3709e-05
277.6	1.6984e-05
277.8	2.1042e-05
278.0	2.6069e-05
278.2	2.7415e-05
278.4	2.7218e-05
278.6	2.7022e-05
278.8	2.6828e-05
279.0	2.6635e-05
279.2	2.6443e-05
279.4	2.6253e-05
279.6	2.6064e-05
279.8	2.5877e-05
280.0	2.569e-05
280.2	2.4086e-05
280.4	2.1507e-05
280.6	1.9204e-05
280.8	1.7148e-05
281.0	1.5312e-05
281.2	1.3673e-05
281.4	1.2209e-05
281.6	1.0901e-05
281.8	9.7342e-06
282.0	8.692e-06
282.2	7.6571e-06
282.4	6.5708e-06
282.6	5.6386e-06
282.8	4.8387e-06
283.0	4.1523e-06
283.2	3.5632e-06
283.4	3.0577e-06
283.6	2.6239e-06
283.8	2.2517e-06
284.0	1.9322e-06
284.2	1.7514e-06
284.4	2.1927e-06
284.6	2.7451e-06
284.8	3.4367e-06
285.0	4.3026e-06
285.2	5.3866e-06
285.4	6.7436e-06
285.6	8.4426e-06
285.8	1.057e-05
286.0	1.3233e-05
286.2	1.6566e-05
286.4	1.4936e-05
286.6	1.3235e-05
286.8	1.1728e-05
287.0	1.0393e-05
287.2	9.2094e-06
287.4	8.1608e-06
287.6	7.2316e-06
287.8	6.4082e-06
288.0	5.6785e-06
288.2	5.0319e-06
288.4	4.7114e-06
288.6	4.4908e-06
288.8	4.2805e-06
289.0	4.0801e-06
289.2	3.8891e-06
289.4	3.707e-06
289.6	3.5334e-06
289.8	3.368e-06
290.0	3.2103e-06
290.2	3.06e-06
290.4	3.4211e-06
290.6	4.3245e-06
290.8	5.4665e-06
291.0	6.9101e-06
291.2	8.735e-06
291.4	1.1042e-05
291.6	1.3958e-05
291.8	1.7644e-05
292.0	2.2303e-05
292.2	2.8193e-05
292.4	3.3119e-05
292.6	3.4523e-05
292.8	3.5985e-05
293.0	3.751e-05
293.2	3.9099e-05
293.4	4.0756e-05
293.6	4.2482e-05
293.8	4.4282e-05
294.0	4.6158e-05
294.2	4.8114e-05
294.4	3.8047e-05
294.6	9.618e-06
294.8	2.4314e-06
295.0	6.1464e-07
295.2	6.0603e-07
295.4	5.9753e-07
295.6	5.8916e-07
295.8	6.138e-07
296.0	8.2191e-07
296.2	1.1006e-06
296.4	1.4737e-06
296.6	1.9734e-06
296.8	2.6425e-06
297.0	3.5384e-06
297.2	4.7381e-06
297.4	6.3446e-06
297.6	8.4957e-06
297.8	1.0446e-05
298.0	1.1387e-05
298.2	1.2413e-05
298.4	1.3532e-05
298.6	1.4752e-05
298.8	1.6081e-05
299.0	1.7531e-05
299.2	1.9111e-05
299.4	2.0834e-05
299.6	2.2711e-05
299.8	2.417e-05
300.0	2.5392e-05
300.2	2.6676e-05
300.4	2.8024e-05
300.6	2.9441e-05
300.8	3.0929e-05
301.0	3.2493e-05
301.2	3.4135e-05
301.4	3.5861e-05
301.6	3.7673e-05
301.8	3.7003e-05
302.0	3.6043e-05
302.2	3.5109e-05
302.4	3.4198e-05
302.6	3.3311e-05
302.8	3.2448e-05
303.0	3.1606e-05
303.2	3.0787e-05
303.4	2.9988e-05
303.6	2.945e-05
303.8	3.0544e-05
304.0	3.1678e-05
304.2	3.2855e-05
304.4	3.4075e-05
304.6	3.5341e-05
304.8	3.6654e-05
305.0	3.8015e-05
305.2	3.9828e-05
305.4	2.3703e-05
305.6	2.7542e-05
305.8	4.3071e-05
306.0	1.4948e-05
306.2	7.8367e-06
306.4	3.8345e-05
306.6	7.6437e-06
306.8	1.0934e-05
307.0	3.1757e-05
307.2	2.054e-05
307.4	7.9453e-06
307.6	1.4795e-05
307.8	3.5688e-05
308.0	3.1138e-05
308.2	1.0663e-05
308.4	2.4143e-05
308.6	1.5477e-05
308.8	1.4652e-05
309.0	1.8779e-05
309.2	4.3003e-05
309.4	3.7265e-05
309.6	3.0306e-05
309.8	2.3272e-05
310.0	9.3754e-06
310.2	2.892e-05
310.4	1.4069e-05
310.6	2.9371e-05
310.8	4.3335e-05
311.0	2.4293e-05
311.2	9.3028e-06
311.4	1.6126e-05
311.6	2.8465e-05
311.8	2.1218e-05
312.0	8.1128e-06
312.2	1.3901e-05
312.4	8.315e-06
312.6	2.1679e-05
312.8	4.0519e-05
313.0	4.5016e-05
313.2	2.0943e-05
313.4	1.3949e-05
313.6	1.7874e-05
313.8	2.2442e-05
314.0	3.6274e-05
314.2	1.616e-05
314.4	3.4058e-05
314.6	3.6948e-05
314.8	3.8897e-05
315.0	2.0225e-05
315.2	3.6129e-05
315.4	3.466e-05
315.6	2.723e-05
315.8	5.3818e-05
316.0	4.6627e-05
316.2	3.6116e-05
316.4	3.902e-05
316.6	2.056e-05
316.8	1.3914e-05
317.0	1.7623e-05
317.2	1.8223e-05
317.4	4.6203e-05
317.6	4.7729e-05
317.8	4.9876e-05
318.0	3.1837e-05
318.2	2.0416e-05
318.4	1.23e-05
318.6	2.4212e-05
318.8	4.3786e-05
319.0	3.5902e-05
319.2	2.8594e-05
319.4	2.3865e-05
319.6	2.9772e-05
319.8	3.5155e-05
320.0	2.3942e-05
320.2	3.0182e-05
320.4	4.3226e-05
320.6	1.8482e-05
320.8	1.7045e-05
321.0	3.4422e-05
321.2	2.8007e-05
321.4	3.4466e-05
321.6	3.8116e-05
321.8	2.8748e-05
322.0	2.8013e-05
322.2	1.9998e-05
322.4	5.0946e-05
322.6	5.3286e-05
322.8	2.6002e-05
323.0	2.9578e-05
323.2	2.7437e-05
323.4	2.5564e-05
323.6	4.7746e-05
323.8	3.5453e-05
324.0	3.2218e-05
324.2	2.5981e-05
324.4	3.2448e-05
324.6	3.1132e-05
324.8	3.3531e-05
325.0	2.6065e-05
325.2	3.1246e-05
325.4	2.2757e-05
325.6	1.0426e-05
325.8	5.9767e-05
326.0	3.0222e-05
326.2	3.6058e-05
326.4	2.4182e-05
326.6	4.3179e-05
326.8	2.0608e-05
327.0	3.7574e-05
327.2	3.953e-05
327.4	4.573e-05
327.6	2.9049e-05
327.8	2.5533e-05
328.0	3.0096e-05
328.2	3.9272e-05
328.4	4.5384e-05
328.6	4.0014e-05
328.8	4.3586e-05
329.0	3.2881e-05
329.2	7.2557e-05
329.4	6.3395e-05
329.6	5.9642e-05
329.8	4.9902e-05
330.0	5.9612e-05
330.2	7.1769e-05
330.4	7.2813e-05
330.6	5.9637e-05
330.8	7.7232e-05
331.0	7.8695e-05
331.2	6.6442e-05
331.4	7.4801e-05
331.6	7.687e-05
331.8	8.074e-05
332.0	6.7606e-05
332.2	6.1261e-05
332.4	7.2156e-05
332.6	7.8974e-05
332.8	7.1069e-05
333.0	8.0313e-05
333.2	7.9418e-05
333.4	7.9054e-05
333.6	7.7172e-05
333.8	7.0385e-05
334.0	9.1488e-05
334.2	8.6707e-05
334.4	8.6048e-05
334.6	8.7493e-05
334.8	9.9156e-05
335.0	9.0049e-05
335.2	8.4336e-05
335.4	1.0007e-04
335.6	1.0455e-04
335.8	9.4503e-05
336.0	9.5143e-05
336.2	9.577e-05
336.4	1.038e-04
336.6	1.0328e-04
336.8	8.9167e-05
337.0	9.3386e-05
337.2	1.1194e-04
337.4	1.0732e-04
337.6	1.0331e-04
337.8	1.0975e-04
338.0	1.2224e-04
338.2	1.1298e-04
338.4	1.1575e-04
338.6	1.0998e-04
338.8	1.1786e-04
339.0	1.205e-04
339.2	1.2935e-04
339.4	1.1956e-04
339.6	1.3573e-04
339.8	1.3226e-04
340.0	1.4024e-04
340.2	1.3723e-04
340.4	1.4123e-04
340.6	1.349e-04
340.8	1.3505e-04
341.0	1.4431e-04
341.2	1.4505e-04
341.4	1.4791e-04
341.6	1.4364e-04
341.8	1.6673e-04
342.0	1.5915e-04
342.2	1.5124e-04
342.4	1.5611e-04
342.6	1.706e-04
342.8	1.6212e-04
343.0	1.7112e-04
343.2	1.833e-04
343.4	1.917e-04
343.6	1.8102e-04
343.8	1.8129e-04
344.0	1.9342e-04
344.2	2.0124e-04
344.4	2.0904e-04
344.6	2.0898e-04
344.8	2.068e-04
345.0	2.2617e-04
345.2	2.3226e-04
345.4	2.2293e-04
345.6	2.2642e-04
345.8	2.2681e-04
346.0	2.2747e-04
346.2	2.4051e-04
346.4	2.4083e-04
346.6	2.4006e-04
346.8	2.5449e-04
347.0	2.5928e-04
347.2	2.7856e-04
347.4	2.6624e-04
347.6	2.8963e-04
347.8	2.9242e-04
348.0	3.028e-04
348.2	3.2132e-04
348.4	3.3716e-04
348.6	3.2345e-04
348.8	3.2846e-04
349.0	3.3369e-04
349.2	3.5055e-04
349.4	3.4995e-04
349.6	3.3794e-04
349.8	3.3596e-04
350.0	3.4024e-04
350.2	3.4186e-04
350.4	3.542e-04
350.6	3.3036e-04
350.8	3.5884e-04
351.0	3.5932e-04
351.2	3.6991e-04
351.4	3.6565e-04
351.6	3.9078e-04
351.8	3.808e-04
352.0	3.8806e-04
352.2	3.8444e-04
352.4	4.0651e-04
352.6	4.1659e-04
352.8	3.9446e-04
353.0	3.9621e-04
353.2	4.1103e-04
353.4	4.066e-04
353.6	3.7164e-04
353.8	3.8228e-04
354.0	3.8051e-04
354.2	3.7046e-04
354.4	3.4262e-04
354.6	3.7209e-04
354.8	3.3961e-04
355.0	3.267e-04
355.2	3.2145e-04
355.4	3.2887e-04
355.6	3.3693e-04
355.8	3.1516e-04
356.0	3.1623e-04
356.2	3.1977e-04
356.4	3.138e-04
356.6	3.3033e-04
356.8	3.2533e-04
357.0	3.1462e-04
357.2	3.1792e-04
357.4	3.3408e-04
357.6	3.3646e-04
357.8	3.3486e-04
358.0	3.3158e-04
358.2	3.2436e-04
358.4	3.479e-04
358.6	3.4478e-04
358.8	3.4242e-04
359.0	3.559e-04
359.2	3.6245e-04
359.4	3.6994e-04
359.6	3.6358e-04
359.8	3.5303e-04
360.0	3.3644e-04
360.2	3.3778e-04
360.4	3.3571e-04
360.6	3.4795e-04
360.8	3.5207e-04
361.0	3.4451e-04
361.2	3.5912e-04
361.4	3.6613e-04
361.6	3.7665e-04
361.8	3.9737e-04
362.0	4.4599e-04
362.2	4.8799e-04
362.4	5.3395e-04
362.6	6.1826e-04
362.8	0.0011
363.0	0.00292
363.2	0.00696
363.4	0.01302
363.6	0.02049
363.8	0.02765
364.0	0.03503
364.2	0.04287
364.4	0.05022
364.6	0.05802
364.8	0.06461
365.0	0.06964
365.2	0.07623
365.4	0.07903
365.6	0.0857
365.8	0.0924
366.0	0.09031
366.2	0.09445
366.4	0.1056
366.6	0.10596
366.8	0.10418
367.0	0.11459
367.2	0.12219
367.4	0.11557
367.6	0.11726
367.8	0.13239
368.0	0.13619
368.2	0.12796
368.4	0.13363
368.6	0.14932
368.8	0.14858
369.0	0.13735
369.2	0.14452
369.4	0.16256
369.6	0.15739
369.8	0.14016
370.0	0.14291
370.2	0.1649
370.4	0.17027
370.6	0.1513
370.8	0.14622
371.0	0.16712
371.2	0.18388
371.4	0.1642
371.6	0.14565
371.8	0.15715
372.0	0.18636
372.2	0.18453
372.4	0.15227
372.6	0.14163
372.8	0.16496
373.0	0.19544
373.2	0.18032
373.4	0.14677
373.6	0.14254
373.8	0.17399
374.0	0.20414
374.2	0.17802
374.4	0.14132
374.6	0.13849
374.8	0.17229
375.0	0.2113
375.2	0.18483
375.4	0.14203
375.6	0.1336
375.8	0.16504
376.0	0.21365
376.2	0.20147
376.4	0.15205
376.6	0.13134
376.8	0.15303
377.0	0.2079
377.2	0.22506
377.4	0.17369
377.6	0.13745
377.8	0.14156
378.0	0.19025
378.2	0.2394
378.4	0.20715
378.6	0.15139
378.8	0.13445
379.0	0.16117
379.2	0.22548
379.4	0.24993
379.6	0.19005
379.8	0.14523
380.0	0.14215
380.2	0.18566
380.4	0.25661
380.6	0.25608
380.8	0.18932
381.0	0.15296
381.2	0.16243
381.4	0.22139
381.6	0.2862
381.8	0.25241
382.0	0.18243
382.2	0.15245
382.4	0.16842
382.6	0.23244
382.8	0.3073
383.0	0.28228
383.2	0.21308
383.4	0.18271
383.6	0.20409
383.8	0.27303
384.0	0.33971
384.2	0.30576
384.4	0.23829
384.6	0.21216
384.8	0.23946
385.0	0.31201
385.2	0.36374
385.4	0.32068
385.6	0.25475
385.8	0.235
386.0	0.26821
386.2	0.34821
386.4	0.39496
386.6	0.34205
386.8	0.27305
387.0	0.2521
387.2	0.28646
387.4	0.36669
387.6	0.41302
387.8	0.36147
388.0	0.28984
388.2	0.26166
388.4	0.2699
388.6	0.2755
388.8	0.23755
389.0	0.18158
389.2	0.14628
389.4	0.14005
389.6	0.16979
389.8	0.25985
390.0	0.39712
390.2	0.38706
390.4	0.26223
390.6	0.19049
390.8	0.18225
391.0	0.22972
391.2	0.35555
391.4	0.46456
391.6	0.38124
391.8	0.26148
392.0	0.2151
392.2	0.23447
392.4	0.33309
392.6	0.47686
392.8	0.45815
393.0	0.30717
393.2	0.22187
393.4	0.20753
393.6	0.26175
393.8	0.40572
394.0	0.5231
394.2	0.4032
394.4	0.25562
394.6	0.19498
394.8	0.19524
395.0	0.25633
395.2	0.41324
395.4	0.55575
395.6	0.46711
395.8	0.3221
396.0	0.26722
396.2	0.2943
396.4	0.41945
396.6	0.58129
396.8	0.52609
397.0	0.34892
397.2	0.25222
397.4	0.23902
397.6	0.30175
397.8	0.45686
398.0	0.52974
398.2	0.37271
398.4	0.22567
398.6	0.16671
398.8	0.16013
399.0	0.20398
399.2	0.34446
399.4	0.55825
399.6	0.49873
399.8	0.30084
400.0	0.20395
400.2	0.18838
400.4	0.23229
400.6	0.36551
400.8	0.50356
401.0	0.40761
401.2	0.2465
401.4	0.17298
401.6	0.15887
401.8	0.19539
402.0	0.31939
402.2	0.51991
402.4	0.47009
402.6	0.27668
402.8	0.17817
403.0	0.15207
403.2	0.17042
403.4	0.2498
403.6	0.38515
403.8	0.3949
404.0	0.2557
404.2	0.16527
404.4	0.13352
404.6	0.14083
404.8	0.19208
405.0	0.30892
405.2	0.38198
405.4	0.28419
405.6	0.17603
405.8	0.12933
406.0	0.11941
406.2	0.13946
406.4	0.19095
406.6	0.24701
406.8	0.22673
407.0	0.16239
407.2	0.1195
407.4	0.10495
407.6	0.11198
407.8	0.14291
408.0	0.19262
408.2	0.21209
408.4	0.16864
408.6	0.12029
408.8	0.09428
409.0	0.08637
409.2	0.09045
409.4	0.10457
409.6	0.1195
409.8	0.12023
410.0	0.10385
410.2	0.08403
410.4	0.07027
410.6	0.06247
410.8	0.05976
411.0	0.061
411.2	0.06573
411.4	0.07197
411.6	0.07365
411.8	0.06364
412.0	0.04831
412.2	0.03639
412.4	0.02967
412.6	0.02742
412.8	0.02987
413.0	0.03882
413.2	0.05044
413.4	0.04123
413.6	0.02415
413.8	0.01634
414.0	0.01358
414.2	0.01294
414.4	0.01436
414.6	0.0228
414.8	0.0256
415.0	0.0134
415.2	0.00985
415.4	0.00915
415.6	0.009
415.8	0.00891
416.0	0.00885
416.2	0.00876
416.4	0.00883
416.6	0.00876
416.8	0.00875
417.0	0.00878
417.2	0.00875
417.4	0.00879
417.6	0.00876
417.8	0.00873
418.0	0.00877
418.2	0.00879
418.4	0.00891
418.6	0.00902
418.8	0.00924
419.0	0.00966
419.2	0.01132
419.4	0.01998
419.6	0.02042
419.8	0.01323
420.0	0.01142
420.2	0.01143
420.4	0.01242
420.6	0.01604
420.8	0.03615
421.0	0.07954
421.2	0.05172
421.4	0.02413
421.6	0.01812
421.8	0.01689
422.0	0.01799
422.2	0.02251
422.4	0.03674
422.6	0.07997
422.8	0.11566
423.0	0.08022
423.2	0.04925
423.4	0.03923
423.6	0.03919
423.8	0.04796
424.0	0.07498
424.2	0.15458
424.4	0.27623
424.6	0.25768
424.8	0.16132
425.0	0.11418
425.2	0.10361
425.4	0.11742
425.6	0.16089
425.8	0.24596
426.0	0.33038
426.2	0.32455
426.4	0.26061
426.6	0.21749
426.8	0.212
427.0	0.247
427.2	0.32955
427.4	0.44307
427.6	0.48969
427.8	0.42396
428.0	0.33442
428.2	0.28459
428.4	0.2776
428.6	0.31196
428.8	0.38911
429.0	0.4864
429.2	0.53246
429.4	0.49115
429.6	0.41947
429.8	0.37464
430.0	0.37176
430.2	0.41455
430.4	0.49039
430.6	0.5534
430.8	0.5394
431.0	0.46077
431.2	0.38134
431.4	0.33713
431.6	0.33283
431.8	0.36909
432.0	0.44445
432.2	0.52692
432.4	0.53651
432.6	0.45839
432.8	0.3613
433.0	0.29581
433.2	0.26772
433.4	0.27485
433.6	0.31897
433.8	0.40668
434.0	0.51407
434.2	0.55454
434.4	0.47888
434.6	0.37362
434.8	0.30086
435.0	0.25595
435.2	0.27428
435.4	0.33583
435.6	0.44556
435.8	0.56223
436.0	0.56689
436.2	0.45536
436.4	0.33916
436.6	0.26966
436.8	0.24142
437.0	0.24841
437.2	0.29044
437.4	0.37915
437.6	0.51158
437.8	0.60591
438.0	0.55908
438.2	0.43285
438.4	0.33101
438.6	0.27773
438.8	0.26329
439.0	0.28072
439.2	0.33671
439.4	0.4363
439.6	0.56058
439.8	0.62819
440.0	0.58378
440.2	0.48237
440.4	0.40252
440.6	0.36201
440.8	0.36226
441.0	0.39813
441.2	0.46979
441.4	0.56435
441.6	0.63675
441.8	0.63797
442.0	0.58043
442.2	0.51602
442.4	0.47961
442.6	0.47882
442.8	0.51452
443.0	0.57957
443.2	0.64807
443.4	0.67254
443.6	0.63026
443.8	0.5528
444.0	0.48361
444.2	0.44497
444.4	0.44032
444.6	0.47246
444.8	0.53777
445.0	0.62139
445.2	0.68088
445.4	0.67237
445.6	0.59967
445.8	0.51673
446.0	0.45701
446.2	0.43161
446.4	0.44081
446.6	0.48468
446.8	0.56047
447.0	0.64679
447.2	0.69532
447.4	0.67252
447.6	0.59981
447.8	0.52285
448.0	0.47285
448.2	0.45688
448.4	0.4759
448.6	0.52791
448.8	0.60719
449.0	0.68263
449.2	0.70872
449.4	0.6638
449.6	0.58501
449.8	0.51408
450.0	0.47242
450.2	0.46431
450.4	0.49156
450.6	0.55193
450.8	0.63754
451.0	0.71363
451.2	0.73562
451.4	0.68661
451.6	0.60384
451.8	0.53212
452.0	0.49197
452.2	0.4861
452.4	0.51551
452.6	0.57937
452.8	0.66566
453.0	0.73828
453.2	0.7487
453.4	0.68902
453.6	0.59901
453.8	0.52352
454.0	0.47843
454.2	0.46953
454.4	0.49412
454.6	0.55424
454.8	0.64312
455.0	0.73318
455.2	0.77037
455.4	0.72996
455.6	0.64348
455.8	0.55973
456.0	0.50359
456.2	0.48316
456.4	0.49762
456.6	0.54784
456.8	0.63262
457.0	0.73031
457.2	0.79535
457.4	0.78085
457.6	0.70142
457.8	0.60585
458.0	0.53273
458.2	0.49356
458.4	0.49102
458.6	0.52231
458.8	0.5891
459.0	0.6853
459.2	0.78098
459.4	0.82155
459.6	0.78288
459.8	0.69529
460.0	0.60669
460.2	0.54678
460.4	0.52044
460.6	0.52982
460.8	0.57338
461.0	0.64913
461.2	0.74456
461.4	0.82071
461.6	0.8345
461.8	0.78039
462.0	0.69554
462.2	0.61994
462.4	0.57244
462.6	0.56047
462.8	0.58132
463.0	0.63552
463.2	0.71701
463.4	0.8035
463.6	0.85545
463.8	0.8421
464.0	0.77605
464.2	0.69509
464.4	0.63017
464.6	0.59536
464.8	0.59439
465.0	0.62596
465.2	0.69046
465.4	0.7769
465.6	0.85783
465.8	0.89545
466.0	0.86886
466.2	0.79609
466.4	0.71741
466.6	0.65783
466.8	0.62883
467.0	0.63276
467.2	0.66879
467.4	0.73549
467.6	0.81639
467.8	0.88386
468.0	0.90418
468.2	0.86528
468.4	0.79203
468.6	0.71958
468.8	0.67016
469.0	0.6511
469.2	0.66412
469.4	0.71103
469.6	0.78508
469.8	0.86959
470.0	0.93316
470.2	0.94067
470.4	0.88716
470.6	0.80383
470.8	0.72553
471.0	0.6744
471.2	0.65362
471.4	0.6673
471.6	0.71467
471.8	0.79144
472.0	0.87918
472.2	0.94493
472.4	0.95145
472.6	0.89093
472.8	0.79894
473.0	0.71223
473.2	0.65283
473.4	0.62619
473.6	0.63392
473.8	0.67614
474.0	0.75104
474.2	0.84769
474.4	0.93378
474.6	0.96367
474.8	0.91471
475.0	0.81823
475.2	0.7172
475.4	0.64142
475.6	0.59796
475.8	0.59091
476.0	0.61799
476.2	0.6814
476.4	0.77734
476.6	0.88651
476.8	0.95943
477.0	0.95062
477.2	0.86312
477.4	0.74424
477.6	0.6422
477.8	0.57443
478.0	0.54259
478.2	0.54515
478.4	0.58373
478.6	0.66008
478.8	0.7722
479.0	0.88962
479.2	0.95234
479.4	0.90534
479.6	0.77866
479.8	0.64135
480.0	0.536
480.2	0.47058
480.4	0.44019
480.6	0.44395
480.8	0.48257
481.0	0.56571
481.2	0.69715
481.4	0.84806
481.6	0.8953
481.8	0.76451
482.0	0.54832
482.2	0.37142
482.4	0.25775
482.6	0.18978
482.8	0.14813
483.0	0.12187
483.2	0.10536
483.4	0.09447
483.6	0.08818
483.8	0.08494
484.0	0.08408
484.2	0.08551
484.4	0.08907
484.6	0.09433
484.8	0.10157
485.0	0.11076
485.2	0.12185
485.4	0.13466
485.6	0.14938
485.8	0.16515
486.0	0.18208
486.2	0.19951
486.4	0.21768
486.6	0.23625
486.8	0.25586
487.0	0.27751
487.2	0.30201
487.4	0.33243
487.6	0.37033
487.8	0.41956
488.0	0.48279
488.2	0.5612
488.4	0.65342
488.6	0.75028
488.8	0.83328
489.0	0.88275
489.2	0.8892
489.4	0.85927
489.6	0.81351
489.8	0.77044
490.0	0.7396
490.2	0.72603
490.4	0.73127
490.6	0.75266
490.8	0.78734
491.0	0.82647
491.2	0.86167
491.4	0.8798
491.6	0.87557
491.8	0.85172
492.0	0.81585
492.2	0.77944
492.4	0.75016
492.6	0.73442
492.8	0.73289
493.0	0.74626
493.2	0.77062
493.4	0.80197
493.6	0.83114
493.8	0.8503
494.0	0.85249
494.2	0.83667
494.4	0.80767
494.6	0.7751
494.8	0.74579
495.0	0.7259
495.2	0.71915
495.4	0.72416
495.6	0.74117
495.8	0.7657
496.0	0.79309
496.2	0.8147
496.4	0.82431
496.6	0.81923
496.8	0.79889
497.0	0.77074
497.2	0.74172
497.4	0.71796
497.6	0.70336
497.8	0.69988
498.0	0.70797
498.2	0.72469
498.4	0.74745
498.6	0.77099
498.8	0.78779
499.0	0.7939
499.2	0.78704
499.4	0.76786
499.6	0.74283
499.8	0.71781
500.0	0.69386
500.2	0.68305
500.4	0.68528
500.6	0.69559
500.8	0.71338
501.0	0.73416
501.2	0.75068
501.4	0.76073
501.6	0.76049
501.8	0.74951
502.0	0.73168
502.2	0.7116
502.4	0.69335
502.6	0.67934
502.8	0.6738
503.0	0.6757
503.2	0.68431
503.4	0.69826
503.6	0.7134
503.8	0.72663
504.0	0.73335
504.2	0.73202
504.4	0.72319
504.6	0.70913
504.8	0.69194
505.0	0.67607
505.2	0.66569
505.4	0.66067
505.6	0.6623
505.8	0.66892
506.0	0.67999
506.2	0.6916
506.4	0.70037
506.6	0.70437
506.8	0.70209
507.0	0.69309
507.2	0.6791
507.4	0.66457
507.6	0.65131
507.8	0.64147
508.0	0.63735
508.2	0.63974
508.4	0.64698
508.6	0.65814
508.8	0.67018
509.0	0.68161
509.2	0.68759
509.4	0.68681
509.6	0.67943
509.8	0.66721
510.0	0.65179
510.2	0.63709
510.4	0.62573
510.6	0.61952
510.8	0.61874
511.0	0.6228
511.2	0.63191
511.4	0.64462
511.6	0.65688
511.8	0.66542
512.0	0.66952
512.2	0.66705
512.4	0.65807
512.6	0.64508
512.8	0.63107
513.0	0.61763
513.2	0.60758
513.4	0.60216
513.6	0.60291
513.8	0.60798
514.0	0.61647
514.2	0.62698
514.4	0.6375
514.6	0.64483
514.8	0.64585
515.0	0.64158
515.2	0.63224
515.4	0.61951
515.6	0.60508
515.8	0.59256
516.0	0.58399
516.2	0.5793
516.4	0.57917
516.6	0.5838
516.8	0.59273
517.0	0.60388
517.2	0.61411
517.4	0.62206
517.6	0.6267
517.8	0.62551
518.0	0.61912
518.2	0.60935
518.4	0.59797
518.6	0.58708
518.8	0.57811
519.0	0.5727
519.2	0.57165
519.4	0.57481
519.6	0.58075
519.8	0.58901
520.0	0.59767
520.2	0.6051
520.4	0.60908
520.6	0.60908
520.8	0.60566
521.0	0.59832
521.2	0.58829
521.4	0.57814
521.6	0.56991
521.8	0.56436
522.0	0.56117
522.2	0.56116
522.4	0.56486
522.6	0.5709
522.8	0.57822
523.0	0.58475
523.2	0.59003
523.4	0.59385
523.6	0.59349
523.8	0.59034
524.0	0.58506
524.2	0.57899
524.4	0.5725
524.6	0.56702
524.8	0.56354
525.0	0.56271
525.2	0.56412
525.4	0.56726
525.6	0.57119
525.8	0.57596
526.0	0.58038
526.2	0.58287
526.4	0.58219
526.6	0.58011
526.8	0.57637
527.0	0.57095
527.2	0.56446
527.4	0.55926
527.6	0.55542
527.8	0.55282
528.0	0.5525
528.2	0.55394
528.4	0.5583
528.6	0.56382
528.8	0.56967
529.0	0.5752
529.2	0.58072
529.4	0.58448
529.6	0.58625
529.8	0.58555
530.0	0.58343
530.2	0.5803
530.4	0.57578
530.6	0.57116
530.8	0.56715
531.0	0.56505
531.2	0.5638
531.4	0.56382
531.6	0.5649
531.8	0.56795
532.0	0.57209
532.2	0.57625
532.4	0.57992
532.6	0.58335
532.8	0.58606
533.0	0.58695
533.2	0.58596
533.4	0.58366
533.6	0.58035
533.8	0.5764
534.0	0.5715
534.2	0.56698
534.4	0.56348
534.6	0.56197
534.8	0.56142
535.0	0.56234
535.2	0.56487
535.4	0.56938
535.6	0.57504
535.8	0.58029
536.0	0.58472
536.2	0.58773
536.4	0.58974
536.6	0.58977
536.8	0.58694
537.0	0.5833
537.2	0.57897
537.4	0.57449
537.6	0.57122
537.8	0.56861
538.0	0.56832
538.2	0.57126
538.4	0.57579
538.6	0.58154
538.8	0.58755
539.0	0.5929
539.2	0.59696
539.4	0.5976
539.6	0.59455
539.8	0.58788
540.0	0.57911
540.2	0.56841
540.4	0.55737
540.6	0.54741
540.8	0.541
541.0	0.53866
541.2	0.54017
541.4	0.5453
541.6	0.55384
541.8	0.56603
542.0	0.58021
542.2	0.59275
542.4	0.60143
542.6	0.60423
542.8	0.5999
543.0	0.58519
543.2	0.56344
543.4	0.54311
543.6	0.52467
543.8	0.5089
544.0	0.49755
544.2	0.49169
544.4	0.49235
544.6	0.50068
544.8	0.5148
545.0	0.53413
545.2	0.55575
545.4	0.57708
545.6	0.59397
545.8	0.60246
546.0	0.59845
546.2	0.58277
546.4	0.5582
546.6	0.52892
546.8	0.49882
547.0	0.4722
547.2	0.45116
547.4	0.43779
547.6	0.43268
547.8	0.43486
548.0	0.44451
548.2	0.46181
548.4	0.48552
548.6	0.51471
548.8	0.54443
549.0	0.56881
549.2	0.58166
549.4	0.57931
549.6	0.5609
549.8	0.53075
550.0	0.49559
550.2	0.46125
550.4	0.43186
550.6	0.40883
550.8	0.39339
551.0	0.38585
551.2	0.38674
551.4	0.3969
551.6	0.41499
551.8	0.44034
552.0	0.47048
552.2	0.50312
552.4	0.53217
552.6	0.55023
552.8	0.55198
553.0	0.53592
553.2	0.5066
553.4	0.46984
553.6	0.43248
553.8	0.39966
554.0	0.3742
554.2	0.35711
554.4	0.34855
554.6	0.34791
554.8	0.35468
555.0	0.36957
555.2	0.3917
555.4	0.42142
555.6	0.45504
555.8	0.48794
556.0	0.51216
556.2	0.52087
556.4	0.5103
556.6	0.48262
556.8	0.4457
557.0	0.40685
557.2	0.37198
557.4	0.34358
557.6	0.32294
557.8	0.30928
558.0	0.30269
558.2	0.30338
558.4	0.31155
558.6	0.32743
558.8	0.34977
559.0	0.37748
559.2	0.40789
559.4	0.4357
559.6	0.45424
559.8	0.45801
560.0	0.44474
560.2	0.41737
560.4	0.3826
560.6	0.34637
560.8	0.31399
561.0	0.28703
561.2	0.26659
561.4	0.25242
561.6	0.24472
561.8	0.24285
562.0	0.24625
562.2	0.25448
562.4	0.26735
562.6	0.28445
562.8	0.30583
563.0	0.32956
563.2	0.35142
563.4	0.36633
563.6	0.37121
563.8	0.36393
564.0	0.34698
564.2	0.32396
564.4	0.29912
564.6	0.27605
564.8	0.25691
565.0	0.24226
565.2	0.23167
565.4	0.22555
565.6	0.22384
565.8	0.22712
566.0	0.23532
566.2	0.24843
566.4	0.26593
566.6	0.28699
566.8	0.30931
567.0	0.32996
567.2	0.34428
567.4	0.3472
567.6	0.33668
567.8	0.31454
568.0	0.28534
568.2	0.25428
568.4	0.22527
568.6	0.20002
568.8	0.17987
569.0	0.16466
569.2	0.15384
569.4	0.14698
569.6	0.14368
569.8	0.14353
570.0	0.14688
570.2	0.15412
570.4	0.16611
570.6	0.18329
570.8	0.20634
571.0	0.23544
571.2	0.26831
571.4	0.30028
571.6	0.32115
571.8	0.32281
572.0	0.30268
572.2	0.26877
572.4	0.23109
572.6	0.19672
572.8	0.16886
573.0	0.14767
573.2	0.13224
573.4	0.12168
573.6	0.11546
573.8	0.11332
574.0	0.11521
574.2	0.12102
574.4	0.13146
574.6	0.14743
574.8	0.17021
575.0	0.20009
575.2	0.23399
575.4	0.26149
575.6	0.26602
575.8	0.24194
576.0	0.20004
576.2	0.15693
576.4	0.12199
576.6	0.09625
576.8	0.07809
577.0	0.06552
577.2	0.05703
577.4	0.05142
577.6	0.04787
577.8	0.04608
578.0	0.0457
578.2	0.04703
578.4	0.05025
578.6	0.05612
578.8	0.06561
579.0	0.08055
579.2	0.10466
579.4	0.14363
579.6	0.20301
579.8	0.27054
580.0	0.29769
580.2	0.25076
580.4	0.17791
580.6	0.1215
580.8	0.08618
581.0	0.06488
581.2	0.05157
581.4	0.04334
581.6	0.038
581.8	0.03497
582.0	0.03361
582.2	0.03366
582.4	0.03533
582.6	0.03883
582.8	0.04538
583.0	0.0569
583.2	0.07811
583.4	0.11951
583.6	0.19425
583.8	0.2646
584.0	0.22769
584.2	0.132
584.4	0.07073
584.6	0.04159
584.8	0.02726
585.0	0.01945
585.2	0.01478
585.4	0.01184
585.6	0.00989
585.8	0.0085
586.0	0.00753
586.2	0.00683
586.4	0.00626
586.6	0.00586
586.8	0.00559
587.0	0.00543
587.2	0.00533
587.4	0.00528
587.6	0.0053
587.8	0.00536
588.0	0.00551
588.2	0.00576
588.4	0.00604
588.6	0.00649
588.8	0.00696
589.0	0.00763
589.2	0.00855
589.4	0.00979
589.6	0.01145
589.8	0.01373
590.0	0.01683
590.2	0.02131
590.4	0.0279
590.6	0.03777
590.8	0.05277
591.0	0.07577
591.2	0.10985
591.4	0.15591
591.6	0.20773
591.8	0.24962
592.0	0.26756
592.2	0.26516
592.4	0.25328
592.6	0.24206
592.8	0.23658
593.0	0.23897
593.2	0.24933
593.4	0.2684
593.6	0.29632
593.8	0.33315
594.0	0.37776
594.2	0.42673
594.4	0.4721
594.6	0.50372
594.8	0.51458
595.0	0.50369
595.2	0.47975
595.4	0.45058
595.6	0.42317
595.8	0.40059
596.0	0.38519
596.2	0.37696
596.4	0.37688
596.6	0.3846
596.8	0.3998
597.0	0.42211
597.2	0.44895
597.4	0.47826
597.6	0.50672
597.8	0.53045
598.0	0.54499
598.2	0.54856
598.4	0.54046
598.6	0.52364
598.8	0.50245
599.0	0.48071
599.2	0.46173
599.4	0.4468
599.6	0.4372
599.8	0.43251
600.0	0.43331
600.2	0.43946
600.4	0.45079
600.6	0.46701
600.8	0.48591
601.0	0.50625
601.2	0.52432
601.4	0.5382
601.6	0.54589
601.8	0.54649
602.0	0.53972
602.2	0.52754
602.4	0.51117
602.6	0.49362
602.8	0.47744
603.0	0.46417
603.2	0.4553
603.4	0.45024
603.6	0.4495
603.8	0.45215
604.0	0.45879
604.2	0.46909
604.4	0.48239
604.6	0.49756
604.8	0.51286
605.0	0.52556
605.2	0.53467
605.4	0.53836
605.6	0.53689
605.8	0.53106
606.0	0.52082
606.2	0.50812
606.4	0.49452
606.6	0.48135
606.8	0.47051
607.0	0.46349
607.2	0.4595
607.4	0.45898
607.6	0.46138
607.8	0.46659
608.0	0.47823
608.2	0.4927
608.4	0.50475
608.6	0.51635
608.8	0.52506
609.0	0.53016
609.2	0.53068
609.4	0.52765
609.6	0.52105
609.8	0.51149
610.0	0.50064
610.2	0.48857
610.4	0.47738
610.6	0.4678
610.8	0.46125
611.0	0.45759
611.2	0.45748
611.4	0.45996
611.6	0.46458
611.8	0.4711
612.0	0.47922
612.2	0.48882
612.4	0.49906
612.6	0.50838
612.8	0.51571
613.0	0.52009
613.2	0.52119
613.4	0.51926
613.6	0.51526
613.8	0.50909
614.0	0.50209
614.2	0.49448
614.4	0.4876
614.6	0.48168
614.8	0.47841
615.0	0.47728
615.2	0.47907
615.4	0.48299
615.6	0.48847
615.8	0.49515
616.0	0.50298
616.2	0.51091
616.4	0.51869
616.6	0.52513
616.8	0.52891
617.0	0.52953
617.2	0.527
617.4	0.52099
617.6	0.51324
617.8	0.50438
618.0	0.49503
618.2	0.4857
618.4	0.47741
618.6	0.47018
618.8	0.46499
619.0	0.46214
619.2	0.46234
619.4	0.46527
619.6	0.47001
619.8	0.47643
620.0	0.48395
620.2	0.49171
620.4	0.49985
620.6	0.50771
620.8	0.51456
621.0	0.51897
621.2	0.52084
621.4	0.51957
621.6	0.5161
621.8	0.51052
622.0	0.50461
622.2	0.49851
622.4	0.49224
622.6	0.48664
622.8	0.48251
623.0	0.47992
623.2	0.47972
623.4	0.48183
623.6	0.48606
623.8	0.49229
624.0	0.49928
624.2	0.50638
624.4	0.51358
624.6	0.52047
624.8	0.52616
625.0	0.53017
625.2	0.53169
625.4	0.53027
625.6	0.52601
625.8	0.51923
626.0	0.51111
626.2	0.50251
626.4	0.49425
626.6	0.48645
626.8	0.47968
627.0	0.47422
627.2	0.4705
627.4	0.4685
627.6	0.46891
627.8	0.47169
628.0	0.47669
628.2	0.48296
628.4	0.48998
628.6	0.49731
628.8	0.50442
629.0	0.51053
629.2	0.51613
629.4	0.52048
629.6	0.52292
629.8	0.52295
630.0	0.52103
630.2	0.51741
630.4	0.51274
630.6	0.50819
630.8	0.50444
631.0	0.5014
631.2	0.49914
631.4	0.49821
631.6	0.4987
631.8	0.50048
632.0	0.50431
632.2	0.50991
632.4	0.51666
632.6	0.52443
632.8	0.53193
633.0	0.53834
633.2	0.54304
633.4	0.54635
633.6	0.5476
633.8	0.54703
634.0	0.54398
634.2	0.53889
634.4	0.53181
634.6	0.52371
634.8	0.5151
635.0	0.50715
635.2	0.50078
635.4	0.49598
635.6	0.49262
635.8	0.49116
636.0	0.49082
636.2	0.49224
636.4	0.49528
636.6	0.50044
636.8	0.50683
637.0	0.51446
637.2	0.522
637.4	0.5288
637.6	0.5339
637.8	0.53723
638.0	0.53856
638.2	0.53823
638.4	0.53634
638.6	0.53251
638.8	0.52744
639.0	0.5212
639.2	0.51514
639.4	0.50909
639.6	0.50454
639.8	0.50183
640.0	0.5015
640.2	0.5031
640.4	0.50672
640.6	0.51228
640.8	0.51956
641.0	0.52874
641.2	0.53955
641.4	0.55133
641.6	0.5635
641.8	0.57474
642.0	0.58421
642.2	0.59085
642.4	0.5937
642.6	0.59271
642.8	0.58861
643.0	0.58118
643.2	0.57114
643.4	0.55938
643.6	0.54648
643.8	0.53329
644.0	0.52114
644.2	0.51066
644.4	0.50246
644.6	0.49728
644.8	0.49468
645.0	0.49485
645.2	0.49689
645.4	0.50136
645.6	0.50797
645.8	0.51668
646.0	0.52821
646.2	0.54047
646.4	0.55426
646.6	0.56772
646.8	0.57966
647.0	0.58926
647.2	0.59621
647.4	0.5997
647.6	0.60036
647.8	0.59813
648.0	0.59267
648.2	0.58549
648.4	0.57626
648.6	0.56641
648.8	0.55692
649.0	0.54821
649.2	0.54094
649.4	0.53563
649.6	0.53236
649.8	0.5311
650.0	0.53119
650.2	0.53269
650.4	0.53606
650.6	0.54092
650.8	0.54747
651.0	0.55487
651.2	0.56269
651.4	0.5704
651.6	0.57702
651.8	0.582
652.0	0.58586
652.2	0.58751
652.4	0.58814
652.6	0.58775
652.8	0.58631
653.0	0.58383
653.2	0.58078
653.4	0.57724
653.6	0.57368
653.8	0.57117
654.0	0.56948
654.2	0.56975
654.4	0.57109
654.6	0.57458
654.8	0.57862
655.0	0.58321
655.2	0.58785
655.4	0.59318
655.6	0.59834
655.8	0.60375
656.0	0.60885
656.2	0.61309
656.4	0.61565
656.6	0.6168
656.8	0.61626
657.0	0.61388
657.2	0.6103
657.4	0.60649
657.6	0.60241
657.8	0.59834
658.0	0.59454
658.2	0.59137
658.4	0.58881
658.6	0.58727
658.8	0.58651
659.0	0.5879
659.2	0.59075
659.4	0.59523
659.6	0.60102
659.8	0.60744
660.0	0.61386
660.2	0.62024
660.4	0.62616
660.6	0.6311
660.8	0.63568
661.0	0.63888
661.2	0.64081
661.4	0.64071
661.6	0.63896
661.8	0.63543
662.0	0.6306
662.2	0.6249
662.4	0.61882
662.6	0.61342
662.8	0.60874
663.0	0.60497
663.2	0.60208
663.4	0.6
663.6	0.59909
663.8	0.59956
664.0	0.60169
664.2	0.6052
664.4	0.61017
664.6	0.61603
664.8	0.62299
665.0	0.62947
665.2	0.63524
665.4	0.6404
665.6	0.64438
665.8	0.64698
666.0	0.64858
666.2	0.6489
666.4	0.64821
666.6	0.64611
666.8	0.64265
667.0	0.63851
667.2	0.63412
667.4	0.63027
667.6	0.62707
667.8	0.62537
668.0	0.62526
668.2	0.62702
668.4	0.63034
668.6	0.63505
668.8	0.64148
669.0	0.64911
669.2	0.65789
669.4	0.66828
669.6	0.67866
669.8	0.68924
670.0	0.69805
670.2	0.70507
670.4	0.70912
670.6	0.70885
670.8	0.70538
671.0	0.69782
671.2	0.68744
671.4	0.67381
671.6	0.65833
671.8	0.64148
672.0	0.62414
672.2	0.60575
672.4	0.58876
672.6	0.5733
672.8	0.55967
673.0	0.54831
673.2	0.53975
673.4	0.53482
673.6	0.53216
673.8	0.53257
674.0	0.53578
674.2	0.54173
674.4	0.55044
674.6	0.56149
674.8	0.57461
675.0	0.59003
675.2	0.60661
675.4	0.62441
675.6	0.64187
675.8	0.65921
676.0	0.67484
676.2	0.68779
676.4	0.69845
676.6	0.70535
676.8	0.70862
677.0	0.70814
677.2	0.70478
677.4	0.69904
677.6	0.69124
677.8	0.68309
678.0	0.67425
678.2	0.66572
678.4	0.65858
678.6	0.65329
678.8	0.64933
679.0	0.64738
679.2	0.64784
679.4	0.65003
679.6	0.65407
679.8	0.66013
680.0	0.66757
680.2	0.67629
680.4	0.68526
680.6	0.69421
680.8	0.70293
681.0	0.71046
681.2	0.71633
681.4	0.72001
681.6	0.72159
681.8	0.72071
682.0	0.7179
682.2	0.71301
682.4	0.70682
682.6	0.69971
682.8	0.69232
683.0	0.6851
683.2	0.67866
683.4	0.67328
683.6	0.66963
683.8	0.66758
684.0	0.66755
684.2	0.66915
684.4	0.67294
684.6	0.67847
684.8	0.68573
685.0	0.69405
685.2	0.70287
685.4	0.71242
685.6	0.72126
685.8	0.72942
686.0	0.7361
686.2	0.74075
686.4	0.74302
686.6	0.74255
686.8	0.73994
687.0	0.7352
687.2	0.72825
687.4	0.72064
687.6	0.71206
687.8	0.70366
688.0	0.69549
688.2	0.68875
688.4	0.68362
688.6	0.68069
688.8	0.67959
689.0	0.68102
689.2	0.68519
689.4	0.69141
689.6	0.70044
689.8	0.71091
690.0	0.72331
690.2	0.73706
690.4	0.7505
690.6	0.76364
690.8	0.77524
691.0	0.78444
691.2	0.79082
691.4	0.79275
691.6	0.79104
691.8	0.78493
692.0	0.77514
692.2	0.76257
692.4	0.74754
692.6	0.73118
692.8	0.71507
693.0	0.69958
693.2	0.68527
693.4	0.67358
693.6	0.66408
693.8	0.65764
694.0	0.65393
694.2	0.65368
694.4	0.65655
694.6	0.66263
694.8	0.67215
695.0	0.684
695.2	0.69849
695.4	0.71489
695.6	0.73243
695.8	0.74993
696.0	0.76665
696.2	0.78059
696.4	0.79153
696.6	0.79838
696.8	0.80027
697.0	0.79704
697.2	0.78861
697.4	0.77616
697.6	0.76091
697.8	0.74349
698.0	0.72553
698.2	0.70796
698.4	0.69189
698.6	0.6773
698.8	0.66619
699.0	0.65774
699.2	0.65307
699.4	0.65171
699.6	0.65421
699.8	0.66005
700.0	0.66888
700.2	0.68198
700.4	0.69734
700.6	0.71512
700.8	0.73431
701.0	0.75377
701.2	0.77284
701.4	0.78935
701.6	0.80226
701.8	0.81029
702.0	0.81286
702.2	0.80908
702.4	0.79972
702.6	0.78563
702.8	0.7671
703.0	0.7473
703.2	0.7263
703.4	0.70583
703.6	0.68676
703.8	0.67022
704.0	0.65679
704.2	0.64663
704.4	0.64043
704.6	0.63807
704.8	0.63965
705.0	0.64559
705.2	0.65547
705.4	0.66894
705.6	0.6862
705.8	0.70585
706.0	0.72821
706.2	0.75127
706.4	0.77427
706.6	0.7948
706.8	0.81184
707.0	0.82316
707.2	0.82762
707.4	0.82492
707.6	0.81463
707.8	0.79829
708.0	0.77691
708.2	0.75243
708.4	0.72702
708.6	0.70154
708.8	0.67767
709.0	0.65712
709.2	0.6395
709.4	0.62554
709.6	0.61622
709.8	0.61101
710.0	0.61027
710.2	0.61388
710.4	0.62195
710.6	0.63453
710.8	0.65132
711.0	0.67164
711.2	0.69465
711.4	0.72015
711.6	0.74633
711.8	0.77184
712.0	0.79334
712.2	0.81024
712.4	0.8196
712.6	0.82055
712.8	0.81283
713.0	0.79668
713.2	0.77411
713.4	0.74761
713.6	0.71815
713.8	0.68866
714.0	0.6606
714.2	0.63538
714.4	0.61343
714.6	0.59579
714.8	0.58257
715.0	0.57366
715.2	0.5696
715.4	0.57016
715.6	0.57548
715.8	0.58584
716.0	0.60103
716.2	0.62039
716.4	0.644
716.6	0.67097
716.8	0.70021
717.0	0.73031
717.2	0.75857
717.4	0.78274
717.6	0.8004
717.8	0.80821
718.0	0.80569
718.2	0.79194
718.4	0.76906
718.6	0.73932
718.8	0.70532
719.0	0.66949
719.2	0.6348
719.4	0.60278
719.6	0.57395
719.8	0.54974
720.0	0.52993
720.2	0.51512
720.4	0.50501
720.6	0.49981
720.8	0.49935
721.0	0.50374
721.2	0.5129
721.4	0.52756
721.6	0.54654
721.8	0.57052
722.0	0.59931
722.2	0.63145
722.4	0.66614
722.6	0.70176
722.8	0.73485
723.0	0.76209
723.2	0.78093
723.4	0.78772
723.6	0.78146
723.8	0.7638
724.0	0.73529
724.2	0.70047
724.4	0.66263
724.6	0.62417
724.8	0.5878
725.0	0.55518
725.2	0.52703
725.4	0.50407
725.6	0.48575
725.8	0.47231
726.0	0.46396
726.2	0.4605
726.4	0.46196
726.6	0.46858
726.8	0.4796
727.0	0.49605
727.2	0.51764
727.4	0.54415
727.6	0.57527
727.8	0.61054
728.0	0.64819
728.2	0.68516
728.4	0.71924
728.6	0.74643
728.8	0.76152
729.0	0.7626
729.2	0.74538
729.4	0.7164
729.6	0.67897
729.8	0.63781
730.0	0.59634
730.2	0.55663
730.4	0.52117
730.6	0.49017
730.8	0.46513
731.0	0.44426
731.2	0.42926
731.4	0.41887
731.6	0.41329
731.8	0.41221
732.0	0.416
732.2	0.42447
732.4	0.43788
732.6	0.45649
732.8	0.48025
733.0	0.50858
733.2	0.54253
733.4	0.57968
733.6	0.61949
733.8	0.65831
734.0	0.69301
734.2	0.71863
734.4	0.73268
734.6	0.73138
734.8	0.71562
735.0	0.68786
735.2	0.65153
735.4	0.61163
735.6	0.57058
735.8	0.53257
736.0	0.49785
736.2	0.46852
736.4	0.44428
736.6	0.42521
736.8	0.41111
737.0	0.40231
737.2	0.39799
737.4	0.39854
737.6	0.40407
737.8	0.41415
738.0	0.42905
738.2	0.44955
738.4	0.47506
738.6	0.50625
738.8	0.54169
739.0	0.58324
739.2	0.62565
739.4	0.66242
739.6	0.69191
739.8	0.70793
740.0	0.70902
740.2	0.69408
740.4	0.66455
740.6	0.62553
740.8	0.58194
741.0	0.53758
741.2	0.49574
741.4	0.45782
741.6	0.42537
741.8	0.39853
742.0	0.37696
742.2	0.36045
742.4	0.34833
742.6	0.3411
742.8	0.3381
743.0	0.33964
743.2	0.3454
743.4	0.35555
743.6	0.37057
743.8	0.39084
744.0	0.41654
744.2	0.44757
744.4	0.48412
744.6	0.52469
744.8	0.5678
745.0	0.61001
745.2	0.64619
745.4	0.67134
745.6	0.67974
745.8	0.67042
746.0	0.64466
746.2	0.60661
746.4	0.56298
746.6	0.51681
746.8	0.47379
747.0	0.43496
747.2	0.40132
747.4	0.37375
747.6	0.3513
747.8	0.33403
748.0	0.32081
748.2	0.31353
748.4	0.31012
748.6	0.3107
748.8	0.31563
749.0	0.32496
749.2	0.33915
749.4	0.35838
749.6	0.38295
749.8	0.4136
750.0	0.44994
750.2	0.49165
750.4	0.53706
750.6	0.5826
750.8	0.62344
751.0	0.65331
751.2	0.66577
751.4	0.65902
751.6	0.63329
751.8	0.59386
752.0	0.5471
752.2	0.49876
752.4	0.45352
752.6	0.41312
752.8	0.37837
753.0	0.34994
753.2	0.32733
753.4	0.30996
753.6	0.29744
753.8	0.28936
754.0	0.2855
754.2	0.28574
754.4	0.29012
754.6	0.29881
754.8	0.31213
755.0	0.33071
755.2	0.35473
755.4	0.38463
755.6	0.42137
755.8	0.46388
756.0	0.51069
756.2	0.55895
756.4	0.60227
756.6	0.63391
756.8	0.64717
757.0	0.63727
757.2	0.60758
757.4	0.56337
757.6	0.51287
757.8	0.46173
758.0	0.40504
758.2	0.36477
758.4	0.33167
758.6	0.30471
758.8	0.28358
759.0	0.26751
759.2	0.25587
759.4	0.24938
759.6	0.24686
759.8	0.24739
760.0	0.25153
760.2	0.2596
760.4	0.27221
760.6	0.28969
760.8	0.31146
761.0	0.33626
761.2	0.37163
761.4	0.41384
761.6	0.46182
761.8	0.51353
762.0	0.56302
762.2	0.60232
762.4	0.62246
762.6	0.61776
762.8	0.58854
763.0	0.54302
763.2	0.48916
763.4	0.4361
763.6	0.38764
763.8	0.3472
764.0	0.31149
764.2	0.28315
764.4	0.26086
764.6	0.24342
764.8	0.23125
765.0	0.22268
765.2	0.21876
765.4	0.2186
765.6	0.22172
765.8	0.22865
766.0	0.23956
766.2	0.25544
766.4	0.27645
766.6	0.29864
766.8	0.33181
767.0	0.37257
767.2	0.42031
767.4	0.4735
767.6	0.52656
767.8	0.57092
768.0	0.59708
768.2	0.59712
768.4	0.57134
768.6	0.52508
768.8	0.47007
769.0	0.41445
769.2	0.36414
769.4	0.32169
769.6	0.28653
769.8	0.25886
770.0	0.2372
770.2	0.22101
770.4	0.20947
770.6	0.20177
770.8	0.19811
771.0	0.19747
771.2	0.20053
771.4	0.20721
771.6	0.21815
771.8	0.2334
772.0	0.25443
772.2	0.28022
772.4	0.31578
772.6	0.36032
772.8	0.41292
773.0	0.47149
773.2	0.52954
773.4	0.57423
773.6	0.59392
773.8	0.58281
774.0	0.54043
774.2	0.48122
774.4	0.41756
774.6	0.35887
774.8	0.30894
775.0	0.27109
775.2	0.23856
775.4	0.21373
775.6	0.19467
775.8	0.18064
776.0	0.17072
776.2	0.16436
776.4	0.16036
776.6	0.16072
776.8	0.16406
777.0	0.17082
777.2	0.18093
777.4	0.19614
777.6	0.2164
777.8	0.23982
778.0	0.27481
778.2	0.31909
778.4	0.37461
778.6	0.43862
778.8	0.50349
779.0	0.55494
779.2	0.57546
779.4	0.55247
779.6	0.49872
779.8	0.42933
780.0	0.36193
780.2	0.30374
780.4	0.25707
780.6	0.22402
780.8	0.19547
781.0	0.17417
781.2	0.15821
781.4	0.14676
781.6	0.13874
781.8	0.1341
782.0	0.13196
782.2	0.13304
782.4	0.13703
782.6	0.14397
782.8	0.15473
783.0	0.16994
783.2	0.19118
783.4	0.21897
783.6	0.25669
783.8	0.30711
784.0	0.37095
784.2	0.44318
784.4	0.51346
784.6	0.5563
784.8	0.55243
785.0	0.50275
785.2	0.42703
785.4	0.35068
785.6	0.2856
785.8	0.23478
786.0	0.19639
786.2	0.16912
786.4	0.14842
786.6	0.13269
786.8	0.12143
787.0	0.11341
787.2	0.10845
787.4	0.10608
787.6	0.1059
787.8	0.10825
788.0	0.1133
788.2	0.12135
788.4	0.13304
788.6	0.14981
788.8	0.173
789.0	0.20574
789.2	0.25112
789.4	0.31078
789.6	0.38508
789.8	0.46396
790.0	0.5194
790.2	0.52507
790.4	0.47488
790.6	0.39983
790.8	0.31973
791.0	0.25328
791.2	0.2032
791.4	0.16713
791.6	0.14096
791.8	0.12243
792.0	0.11017
792.2	0.10056
792.4	0.09424
792.6	0.09035
792.8	0.08887
793.0	0.0895
793.2	0.09196
793.4	0.09613
793.6	0.10413
793.8	0.11617
794.0	0.13362
794.2	0.15874
794.4	0.19462
794.6	0.2451
794.8	0.31763
795.0	0.37852
795.2	0.35641
795.4	0.33559
795.6	0.31599
795.8	0.29753
796.0	0.28015
796.2	0.22483
796.4	0.18614
796.6	0.1541
796.8	0.12758
797.0	0.10562
797.2	0.08744
797.4	0.07759
797.6	0.07611
797.8	0.07465
798.0	0.07322
798.2	0.07181
798.4	0.07044
798.6	0.07361
798.8	0.0869
799.0	0.10259
799.2	0.1211
799.4	0.14296
799.6	0.16876
799.8	0.21771
800.0	0.24219
800.2	0.26943
800.4	0.29972
800.6	0.33343
800.8	0.37092
801.0	0.30605
801.2	0.23469
801.4	0.17997
801.6	0.138
801.8	0.10582
802.0	0.08115
802.2	0.06815
802.4	0.06441
802.6	0.06087
802.8	0.05752
803.0	0.05436
803.2	0.05137
803.4	0.05187
803.6	0.05983
803.8	0.06901
804.0	0.0796
804.2	0.09182
804.4	0.1059
804.6	0.13515
804.8	0.16671
805.0	0.20564
805.2	0.25366
805.4	0.31289
805.6	0.38595
805.8	0.32652
806.0	0.23795
806.2	0.17341
806.4	0.12638
806.6	0.0921
806.8	0.06712
807.0	0.05449
807.2	0.05105
807.4	0.04783
807.6	0.04481
807.8	0.04198
808.0	0.03933
808.2	0.03986
808.4	0.04706
808.6	0.05558
808.8	0.06563
809.0	0.0775
809.2	0.09152
809.4	0.1237
809.6	0.14347
809.8	0.16641
810.0	0.19301
810.2	0.22386
810.4	0.25965
810.6	0.18753
810.8	0.13732
811.0	0.10055
811.2	0.07363
811.4	0.05392
811.6	0.03948
811.8	0.03294
812.0	0.03216
812.2	0.03139
812.4	0.03064
812.6	0.02991
812.8	0.02919
813.0	0.03143
813.2	0.04322
813.4	0.05942
813.6	0.08171
813.8	0.11234
814.0	0.15447
814.2	0.2565
814.4	0.19444
814.6	0.14739
814.8	0.11173
815.0	0.0847
815.2	0.0642
815.4	0.04474
815.6	0.03737
815.8	0.03122
816.0	0.02608
816.2	0.02178
816.4	0.0182
816.6	0.01716
816.8	0.01983
817.0	0.02292
817.2	0.02648
817.4	0.0306
817.6	0.03535
817.8	0.04991
818.0	0.05889
818.2	0.06948
818.4	0.08198
818.6	0.09673
818.8	0.11413
819.0	0.06833
819.2	0.04899
819.4	0.03513
819.6	0.02519
819.8	0.01806
820.0	0.01295
820.2	0.01116
820.4	0.01235
820.6	0.01367
820.8	0.01513
821.0	0.01674
821.2	0.01853
821.4	0.02582
821.6	0.03057
821.8	0.03619
822.0	0.04283
822.2	0.05071
822.4	0.06002
822.6	0.03215
822.8	0.02322
823.0	0.01676
823.2	0.01211
823.4	0.00874
823.6	0.00631
823.8	0.00571
824.0	0.00838
824.2	0.0123
824.4	0.01806
824.6	0.02651
824.8	0.03891
825.0	0.11356
825.2	0.06088
825.4	0.03264
825.6	0.0175
825.8	0.00938
826.0	0.00503
826.2	0.00338
826.4	0.00362
826.6	0.00387
826.8	0.00413
827.0	0.00442
827.2	0.00472
827.4	0.00932
827.6	0.0068
827.8	0.00496
828.0	0.00362
828.2	0.00264
828.4	0.00193
828.6	0.00124
828.8	0.00229
829.0	0.00424
829.2	0.00785
829.4	0.01454
829.6	0.02693
829.8	0.02545
830.0	0.00976
830.2	0.00374
830.4	0.00143
830.6	5.4973e-04
830.8	2.1076e-04
831.0	0.00105
831.2	2.2465e-04
831.4	4.7842e-05
831.6	1.0189e-05
831.8	2.1698e-06
832.0	4.621e-07
832.2	6.0344e-08
832.4	5.3592e-08
832.6	4.7596e-08
832.8	4.2271e-08
833.0	3.7542e-08
833.2	3.3342e-08
833.4	3.2311e-08
833.6	4.3995e-08
833.8	5.9904e-08
834.0	8.1567e-08
834.2	1.1106e-07
834.4	1.5123e-07
834.6	5.1882e-08
834.8	5.4151e-08
835.0	5.6521e-08
835.2	5.8993e-08
835.4	6.1574e-08
835.6	6.4268e-08
835.8	3.2372e-08
836.0	3.2374e-08
836.2	3.2375e-08
836.4	3.2377e-08
836.6	3.2379e-08
836.8	3.238e-08
837.0	1.7652e-07
837.2	1.2771e-07
837.4	9.2396e-08
837.6	6.6848e-08
837.8	4.8364e-08
838.0	3.4991e-08
838.2	3.2337e-08
838.4	3.2336e-08
838.6	3.2336e-08
838.8	3.2335e-08
839.0	3.2335e-08
839.2	3.2334e-08
839.4	6.1471e-08
839.6	5.4359e-08
839.8	4.807e-08
840.0	4.2508e-08
840.2	3.759e-08
840.4	3.3241e-08
840.6	3.2265e-08
840.8	3.2266e-08
841.0	3.2267e-08
841.2	3.2269e-08
841.4	3.227e-08
841.6	3.2271e-08
841.8	4.0954e-08
842.0	3.9088e-08
842.2	3.7308e-08
842.4	3.5608e-08
842.6	3.3986e-08
842.8	3.2438e-08
843.0	5.2787e-08
843.2	4.7982e-08
843.4	4.3613e-08
843.6	3.9643e-08
843.8	3.6034e-08
844.0	3.2753e-08
844.2	6.0208e-08
844.4	6.0925e-08
844.6	6.1651e-08
844.8	6.2385e-08
845.0	6.3129e-08
845.2	6.3881e-08
845.4	5.8266e-08
845.6	5.1924e-08
845.8	4.6273e-08
846.0	4.1236e-08
846.2	3.6747e-08
846.4	3.2748e-08
846.6	9.544e-08
846.8	7.7147e-08
847.0	6.2361e-08
847.2	5.0408e-08
847.4	4.0747e-08
847.6	3.2937e-08
847.8	4.7726e-08
848.0	4.4072e-08
848.2	4.0697e-08
848.4	3.7581e-08
848.6	3.4703e-08
848.8	3.2046e-08
849.0	3.1367e-08
849.2	3.1344e-08
849.4	3.1321e-08
849.6	3.1298e-08
849.8	3.1275e-08
850.0	3.1252e-08
850.2	3.1215e-08
850.4	3.1174e-08
850.6	3.1133e-08
850.8	3.1092e-08
851.0	3.1051e-08
851.2	3.101e-08
851.4	3.0978e-08
851.6	3.1036e-08
851.8	3.1095e-08
852.0	3.1153e-08
852.2	3.1212e-08
852.4	3.1271e-08
852.6	5.8982e-08
852.8	7.1093e-08
853.0	8.5691e-08
853.2	1.0329e-07
853.4	1.245e-07
853.6	1.5006e-07
853.8	3.1412e-08
854.0	3.1449e-08
854.2	3.1486e-08
854.4	3.1523e-08
854.6	3.1561e-08
854.8	3.1598e-08
855.0	3.1612e-08
855.2	3.1641e-08
855.4	3.1669e-08
855.6	3.1697e-08
855.8	3.1726e-08
856.0	3.1754e-08
856.2	3.1656e-08
856.4	4.4556e-08
856.6	6.2714e-08
856.8	8.8271e-08
857.0	1.2424e-07
857.2	1.7487e-07
857.4	4.0741e-08
857.6	3.8839e-08
857.8	3.7026e-08
858.0	3.5298e-08
858.2	3.3651e-08
858.4	3.208e-08
858.6	3.1681e-08
858.8	3.1686e-08
859.0	3.1692e-08
859.2	3.1697e-08
859.4	3.1702e-08
859.6	3.1708e-08
859.8	3.1717e-08
860.0	4.6043e-08
860.2	6.684e-08
860.4	9.7029e-08
860.6	1.4085e-07
860.8	2.0447e-07
861.0	3.166e-08
861.2	4.4547e-08
861.4	6.268e-08
861.6	8.8193e-08
861.8	1.2409e-07
862.0	1.746e-07
862.2	5.4902e-08
862.4	4.9396e-08
862.6	4.4443e-08
862.8	3.9986e-08
863.0	3.5976e-08
863.2	3.2368e-08
863.4	7.5562e-08
863.6	6.389e-08
863.8	5.402e-08
864.0	4.5675e-08
864.2	3.862e-08
864.4	3.2654e-08
864.6	3.4172e-08
864.8	4.3809e-08
865.0	5.6163e-08
865.2	7.2002e-08
865.4	9.2308e-08
865.6	1.1834e-07
865.8	1.0381e-07
866.0	8.2468e-08
866.2	6.5516e-08
866.4	5.2049e-08
866.6	4.135e-08
866.8	3.285e-08
867.0	8.6184e-08
867.2	7.0917e-08
867.4	5.8354e-08
867.6	4.8016e-08
867.8	3.951e-08
868.0	3.2511e-08
868.2	1.393e-07
868.4	1.0436e-07
868.6	7.8176e-08
868.8	5.8564e-08
869.0	4.3873e-08
869.2	3.2867e-08
869.4	5.7455e-08
869.6	6.2795e-08
869.8	6.863e-08
870.0	7.5008e-08
870.2	8.1978e-08
870.4	8.9596e-08
870.6	3.828e-08
870.8	3.6611e-08
871.0	3.5014e-08
871.2	3.3486e-08
871.4	3.2026e-08
871.6	3.0629e-08
871.8	3.026e-08
872.0	3.4504e-08
872.2	3.9342e-08
872.4	4.4858e-08
872.6	5.1148e-08
872.8	5.832e-08
873.0	8.629e-08
873.2	7.0442e-08
873.4	5.7504e-08
873.6	4.6943e-08
873.8	3.8321e-08
874.0	3.1283e-08
874.2	3.2556e-08
874.4	3.1965e-08
874.6	3.1386e-08
874.8	3.0816e-08
875.0	3.0258e-08
875.2	2.9709e-08
875.4	5.4408e-08
875.6	4.8328e-08
875.8	4.2927e-08
876.0	3.813e-08
876.2	3.3869e-08
876.4	3.0084e-08
876.6	2.9252e-08
876.8	2.9211e-08
877.0	2.9169e-08
877.2	2.9128e-08
877.4	2.9086e-08
877.6	2.9045e-08
877.8	2.8961e-08
878.0	3.7689e-08
878.2	4.9047e-08
878.4	6.3828e-08
878.6	8.3064e-08
878.8	1.081e-07
879.0	4.5718e-08
879.2	4.1799e-08
879.4	3.8216e-08
879.6	3.494e-08
879.8	3.1945e-08
880.0	2.9207e-08
880.2	3.1825e-08
880.4	3.1155e-08
880.6	3.05e-08
880.8	2.9858e-08
881.0	2.923e-08
881.2	2.8615e-08
881.4	2.8457e-08
881.6	2.8409e-08
881.8	2.8362e-08
882.0	2.8315e-08
882.2	2.8267e-08
882.4	2.822e-08
882.6	6.8807e-08
882.8	7.5422e-08
883.0	8.2674e-08
883.2	9.0623e-08
883.4	9.9337e-08
883.6	1.0889e-07
883.8	1.0075e-07
884.0	7.8599e-08
884.2	6.1318e-08
884.4	4.7836e-08
884.6	3.7319e-08
884.8	2.9114e-08
885.0	2.9799e-08
885.2	2.933e-08
885.4	2.8869e-08
885.6	2.8415e-08
885.8	2.7968e-08
886.0	2.7528e-08
886.2	1.5186e-07
886.4	1.0923e-07
886.6	7.8575e-08
886.8	5.6521e-08
887.0	4.0657e-08
887.2	2.9246e-08
887.4	3.0247e-08
887.6	2.9636e-08
887.8	2.9036e-08
888.0	2.8449e-08
888.2	2.7874e-08
888.4	2.731e-08
888.6	2.7171e-08
888.8	2.7111e-08
889.0	2.7051e-08
889.2	2.6991e-08
889.4	2.6931e-08
889.6	2.6871e-08
889.8	2.685e-08
890.0	2.6804e-08
890.2	2.6757e-08
890.4	2.671e-08
890.6	2.6664e-08
890.8	2.6617e-08
891.0	5.6351e-08
891.2	5.5783e-08
891.4	5.5221e-08
891.6	5.4664e-08
891.8	5.4114e-08
892.0	5.3568e-08
892.2	2.663e-08
892.4	2.6582e-08
892.6	2.6535e-08
892.8	2.6487e-08
893.0	2.644e-08
893.2	2.6393e-08
893.4	5.1239e-08
893.6	4.5087e-08
893.8	3.9675e-08
894.0	3.4912e-08
894.2	3.072e-08
894.4	2.7032e-08
894.6	2.6241e-08
894.8	2.6228e-08
895.0	2.6216e-08
895.2	2.6203e-08
895.4	2.619e-08
895.6	2.6178e-08
895.8	3.1625e-08
896.0	3.0485e-08
896.2	2.9386e-08
896.4	2.8327e-08
896.6	2.7306e-08
896.8	2.6322e-08
897.0	7.509e-08
897.2	7.0056e-08
897.4	6.5361e-08
897.6	6.0979e-08
897.8	5.6892e-08
898.0	5.3078e-08
898.2	4.8432e-08
898.4	4.298e-08
898.6	3.8142e-08
898.8	3.3849e-08
899.0	3.0039e-08
899.2	2.6657e-08
899.4	4.9244e-08
899.6	4.3522e-08
899.8	3.8464e-08
900.0	3.4879e-08
900.2	3.0826e-08
900.4	2.7243e-08
900.6	3.1485e-08
900.8	3.0493e-08
901.0	2.9532e-08
901.2	2.8602e-08
901.4	2.77e-08
901.6	2.6828e-08
901.8	2.6544e-08
902.0	2.6509e-08
902.2	2.6474e-08
902.4	2.6439e-08
902.6	2.6404e-08
902.8	2.6369e-08
903.0	2.6324e-08
903.2	2.6318e-08
903.4	2.6312e-08
903.6	2.6307e-08
903.8	2.63e-08
904.0	2.6294e-08
904.2	2.6291e-08
904.4	2.6287e-08
904.6	2.6283e-08
904.8	2.6278e-08
905.0	2.6274e-08
905.2	2.627e-08
905.4	2.6211e-08
905.6	2.6188e-08
905.8	2.6164e-08
906.0	2.614e-08
906.2	2.6117e-08
906.4	2.6093e-08
906.6	2.6058e-08
906.8	2.9795e-08
907.0	3.4067e-08
907.2	3.8952e-08
907.4	4.4539e-08
907.6	5.0926e-08
907.8	1.2228e-07
908.0	9.1243e-08
908.2	6.8086e-08
908.4	5.0806e-08
908.6	3.7913e-08
908.8	2.8291e-08
909.0	2.6285e-08
909.2	2.6277e-08
909.4	2.6268e-08
909.6	2.6259e-08
909.8	2.6251e-08
910.0	2.6242e-08
910.2	2.6166e-08
910.4	2.6121e-08
910.6	2.6076e-08
910.8	2.603e-08
911.0	2.5984e-08
911.2	2.5939e-08
911.4	2.5878e-08
911.6	2.5912e-08
911.8	2.5945e-08
912.0	2.5979e-08
912.2	2.6013e-08
912.4	2.6047e-08
912.6	2.5981e-08
912.8	2.5977e-08
913.0	2.5973e-08
913.2	2.5968e-08
913.4	2.5964e-08
913.6	2.596e-08
913.8	7.2121e-08
914.0	5.9265e-08
914.2	4.87e-08
914.4	4.0019e-08
914.6	3.2885e-08
914.8	2.7024e-08
915.0	5.1856e-08
915.2	4.546e-08
915.4	3.9853e-08
915.6	3.4937e-08
915.8	3.0628e-08
916.0	2.685e-08
916.2	2.6065e-08
916.4	3.7862e-08
916.6	5.5001e-08
916.8	7.9897e-08
917.0	1.1606e-07
917.2	1.686e-07
917.4	3.1277e-08
917.6	3.0216e-08
917.8	2.9191e-08
918.0	2.8202e-08
918.2	2.7245e-08
918.4	2.6321e-08
918.6	1.0082e-07
918.8	7.7994e-08
919.0	6.0339e-08
919.2	4.668e-08
919.4	3.6113e-08
919.6	2.7938e-08
919.8	4.9576e-08
920.0	5.4278e-08
920.2	5.9426e-08
920.4	6.5063e-08
920.6	7.1233e-08
920.8	7.7989e-08
921.0	2.8391e-08
921.2	2.8002e-08
921.4	2.7617e-08
921.6	2.7238e-08
921.8	2.6864e-08
922.0	2.6494e-08
922.2	3.5889e-08
922.4	3.389e-08
922.6	3.2002e-08
922.8	3.0219e-08
923.0	2.8535e-08
923.2	2.6946e-08
923.4	2.6627e-08
923.6	2.6651e-08
923.8	2.6677e-08
924.0	2.6703e-08
924.2	2.6727e-08
924.4	2.6753e-08
924.6	3.2902e-08
924.8	3.168e-08
925.0	3.0504e-08
925.2	2.9371e-08
925.4	2.8281e-08
925.6	2.723e-08
925.8	5.2482e-08
926.0	4.6253e-08
926.2	4.0763e-08
926.4	3.5925e-08
926.6	3.1661e-08
926.8	2.7903e-08
927.0	5.4251e-08
927.2	4.7543e-08
927.4	4.1664e-08
927.6	3.6512e-08
927.8	3.1998e-08
928.0	2.8041e-08
928.2	3.1588e-08
928.4	3.0713e-08
928.6	2.9863e-08
928.8	2.9036e-08
929.0	2.8231e-08
929.2	2.745e-08
929.4	2.7312e-08
929.6	2.7366e-08
929.8	2.742e-08
930.0	2.7474e-08
930.2	2.7528e-08
930.4	2.7582e-08
930.6	5.1014e-08
930.8	4.5561e-08
931.0	4.069e-08
931.2	3.6341e-08
931.4	3.2455e-08
931.6	2.8987e-08
931.8	2.8089e-08
932.0	3.6638e-08
932.2	4.7789e-08
932.4	6.2335e-08
932.6	8.1307e-08
932.8	1.0606e-07
933.0	2.8096e-08
933.2	2.8148e-08
933.4	2.8201e-08
933.6	2.8253e-08
933.8	2.8305e-08
934.0	2.8358e-08
934.2	2.8733e-08
934.4	2.8705e-08
934.6	2.8678e-08
934.8	2.865e-08
935.0	2.8622e-08
935.2	2.8595e-08
935.4	1.1193e-07
935.6	8.6337e-08
935.8	6.6598e-08
936.0	5.1372e-08
936.2	3.9626e-08
936.4	3.0567e-08
936.6	2.9004e-08
936.8	3.7844e-08
937.0	4.9379e-08
937.2	6.443e-08
937.4	8.4067e-08
937.6	1.0969e-07
937.8	5.562e-08
938.0	4.9146e-08
938.2	4.3425e-08
938.4	3.8371e-08
938.6	3.3904e-08
938.8	2.9958e-08
939.0	1.4214e-07
939.2	1.0509e-07
939.4	7.7698e-08
939.6	5.7446e-08
939.8	4.2471e-08
940.0	3.1401e-08
940.2	2.94e-08
940.4	3.3651e-08
940.6	3.8516e-08
940.8	4.4085e-08
941.0	5.0459e-08
941.2	5.7755e-08
941.4	2.9817e-08
941.6	2.984e-08
941.8	2.9865e-08
942.0	2.9888e-08
942.2	2.9913e-08
942.4	2.9938e-08
942.6	8.845e-08
942.8	7.2055e-08
943.0	5.8698e-08
943.2	4.7818e-08
943.4	3.8954e-08
943.6	3.1733e-08
943.8	3.0508e-08
944.0	3.7674e-08
944.2	4.6522e-08
944.4	5.7449e-08
944.6	7.0942e-08
944.8	8.7604e-08
945.0	3.0741e-08
945.2	3.088e-08
945.4	3.1018e-08
945.6	3.1158e-08
945.8	3.1298e-08
946.0	3.1439e-08
946.2	3.1078e-08
946.4	3.1096e-08
946.6	3.1113e-08
946.8	3.1131e-08
947.0	3.1149e-08
947.2	3.1167e-08
947.4	3.8976e-08
947.6	3.7427e-08
947.8	3.5941e-08
948.0	3.4513e-08
948.2	3.3141e-08
948.4	3.1824e-08
948.6	3.1572e-08
948.8	3.1683e-08
949.0	3.1794e-08
949.2	3.1906e-08
949.4	3.2017e-08
949.6	3.2129e-08
949.8	3.2162e-08
950.0	3.217e-08
950.2	3.2179e-08
950.4	3.2188e-08
950.6	3.2196e-08
950.8	3.2204e-08
951.0	3.2211e-08
951.2	3.235e-08
951.4	3.2488e-08
951.6	3.2628e-08
951.8	3.2767e-08
952.0	3.2908e-08
952.2	3.3277e-08
952.4	3.3212e-08
952.6	3.3146e-08
952.8	3.308e-08
953.0	3.3015e-08
953.2	3.295e-08
953.4	6.2344e-08
953.6	5.546e-08
953.8	4.9336e-08
954.0	4.3888e-08
954.2	3.9042e-08
954.4	3.4731e-08
954.6	3.3471e-08
954.8	3.3587e-08
955.0	3.3704e-08
955.2	3.3821e-08
955.4	3.3939e-08
955.6	3.4056e-08
955.8	3.4034e-08
956.0	3.4055e-08
956.2	3.4074e-08
956.4	3.4094e-08
956.6	3.4113e-08
956.8	3.4133e-08
957.0	1.9507e-07
957.2	1.4005e-07
957.4	1.0054e-07
957.6	7.2182e-08
957.8	5.1821e-08
958.0	3.7203e-08
958.2	3.4729e-08
958.4	3.4789e-08
958.6	3.4849e-08
958.8	3.491e-08
959.0	3.4969e-08
959.2	3.503e-08
959.4	3.5087e-08
959.6	4.022e-08
959.8	4.6104e-08
960.0	5.285e-08
960.2	6.0582e-08
960.4	6.9446e-08
960.6	3.5891e-08
960.8	3.5948e-08
961.0	3.6006e-08
961.2	3.6064e-08
961.4	3.6122e-08
961.6	3.6181e-08
961.8	3.6302e-08
962.0	4.4914e-08
962.2	5.5568e-08
962.4	6.8751e-08
962.6	8.5061e-08
962.8	1.0524e-07
963.0	7.2034e-08
963.2	7.8435e-08
963.4	8.5404e-08
963.6	9.2993e-08
963.8	1.0125e-07
964.0	1.1025e-07
964.2	5.0472e-08
964.4	5.4568e-08
964.6	5.8995e-08
964.8	6.3781e-08
965.0	6.8955e-08
965.2	7.455e-08
965.4	1.1065e-07
965.6	9.0333e-08
965.8	7.3743e-08
966.0	6.0198e-08
966.2	4.9142e-08
966.4	4.0117e-08
966.6	3.8617e-08
966.8	4.4143e-08
967.0	5.046e-08
967.2	5.7681e-08
967.4	6.5935e-08
967.6	7.537e-08
967.8	3.8899e-08
968.0	3.9062e-08
968.2	3.9225e-08
968.4	3.9388e-08
968.6	3.9553e-08
968.8	3.9719e-08
969.0	1.1397e-07
969.2	9.3337e-08
969.4	7.6437e-08
969.6	6.2597e-08
969.8	5.1264e-08
970.0	4.1982e-08
970.2	4.0454e-08
970.4	4.055e-08
970.6	4.0644e-08
970.8	4.074e-08
971.0	4.0836e-08
971.2	4.0931e-08
971.4	4.1023e-08
971.6	4.1199e-08
971.8	4.1378e-08
972.0	4.1556e-08
972.2	4.1736e-08
972.4	4.1916e-08
972.6	4.2146e-08
972.8	4.8289e-08
973.0	5.5326e-08
973.2	6.3389e-08
973.4	7.2628e-08
973.6	8.3213e-08
973.8	3.1974e-07
974.0	2.1756e-07
974.2	1.4803e-07
974.4	1.0073e-07
974.6	6.8536e-08
974.8	4.6634e-08
975.0	8.8721e-08
975.2	7.7603e-08
975.4	6.7878e-08
975.6	5.9373e-08
975.8	5.1932e-08
976.0	4.5424e-08
976.2	4.4227e-08
976.4	4.4358e-08
976.6	4.449e-08
976.8	4.4624e-08
977.0	4.4757e-08
977.2	4.4891e-08
977.4	2.2051e-07
977.6	1.6324e-07
977.8	1.2084e-07
978.0	8.9458e-08
978.2	6.6224e-08
978.4	4.9024e-08
978.6	5.2152e-08
978.8	5.1047e-08
979.0	4.9965e-08
979.2	4.8906e-08
979.4	4.787e-08
979.6	4.6856e-08
979.8	4.6836e-08
980.0	4.7052e-08
980.2	4.727e-08
980.4	4.7489e-08
980.6	4.7709e-08
980.8	4.793e-08
981.0	4.8109e-08
981.2	6.569e-08
981.4	8.9694e-08
981.6	1.2247e-07
981.8	1.6723e-07
982.0	2.2834e-07
982.2	1.8201e-07
982.4	1.4201e-07
982.6	1.108e-07
982.8	8.6446e-08
983.0	6.7447e-08
983.2	5.2624e-08
983.4	9.9053e-08
983.6	8.7234e-08
983.8	7.6825e-08
984.0	6.7658e-08
984.2	5.9585e-08
984.4	5.2475e-08
984.6	5.1239e-08
984.8	5.1422e-08
985.0	5.1605e-08
985.2	5.1787e-08
985.4	5.1972e-08
985.6	5.2156e-08
985.8	5.2397e-08
986.0	5.2589e-08
986.2	5.2781e-08
986.4	5.2973e-08
986.6	5.3166e-08
986.8	5.336e-08
987.0	1.0603e-07
987.2	9.3433e-08
987.4	8.2333e-08
987.6	7.2554e-08
987.8	6.3935e-08
988.0	5.6341e-08
988.2	5.4951e-08
988.4	5.5113e-08
988.6	5.5274e-08
988.8	5.5437e-08
989.0	5.56e-08
989.2	5.5763e-08
989.4	1.5835e-07
989.6	1.3036e-07
989.8	1.0732e-07
990.0	8.8348e-08
990.2	7.2731e-08
990.4	5.9874e-08
990.6	5.7725e-08
990.8	5.8003e-08
991.0	5.8282e-08
991.2	5.8563e-08
991.4	5.8845e-08
991.6	5.9128e-08
991.8	5.9315e-08
992.0	5.9576e-08
992.2	5.9837e-08
992.4	6.01e-08
992.6	6.0364e-08
992.8	6.0628e-08
993.0	6.0931e-08
993.2	6.1158e-08
993.4	6.1385e-08
993.6	6.1613e-08
993.8	6.1842e-08
994.0	6.2072e-08
994.2	1.7774e-07
994.4	1.6676e-07
994.6	1.5645e-07
994.8	1.4679e-07
995.0	1.3772e-07
995.2	1.292e-07
995.4	6.3951e-08
995.6	6.4257e-08
995.8	6.4565e-08
996.0	6.4875e-08
996.2	6.5186e-08
996.4	6.5499e-08
996.6	1.3141e-07
996.8	1.1568e-07
997.0	1.0183e-07
997.2	8.964e-08
997.4	7.8909e-08
997.6	6.9462e-08
997.8	6.7833e-08
998.0	6.8132e-08
998.2	6.8432e-08
998.4	6.8733e-08
998.6	6.9035e-08
998.8	6.9339e-08
999.0	6.945e-08
999.2	6.9755e-08
999.4	7.0061e-08
999.6	7.0369e-08
999.8	7.0679e-08
1000.0	7.099e-08
1000.2	7.6131e-08
1000.4	9.8652e-08
1000.6	1.2783e-07
1000.8	1.6565e-07
1001.0	2.1465e-07
1001.2	2.7815e-07
1001.4	1.411e-07
1001.6	1.2535e-07
1001.8	1.1136e-07
1002.0	9.8931e-08
1002.2	8.789e-08
1002.4	7.8082e-08
1002.6	7.6345e-08
1002.8	7.6625e-08
1003.0	7.6906e-08
1003.2	7.7189e-08
1003.4	7.7472e-08
1003.6	7.7757e-08
1003.8	7.7909e-08
1004.0	1.0241e-07
1004.2	1.3462e-07
1004.4	1.7696e-07
1004.6	2.3261e-07
1004.8	3.0578e-07
1005.0	8.5645e-08
1005.2	8.5215e-08
1005.4	8.4787e-08
1005.6	8.436e-08
1005.8	8.3935e-08
1006.0	8.3513e-08
1006.2	8.3831e-08
1006.4	8.4415e-08
1006.6	8.5002e-08
1006.8	8.5593e-08
1007.0	8.6188e-08
1007.2	8.6787e-08
1007.4	8.7066e-08
1007.6	8.753e-08
1007.8	8.7996e-08
1008.0	8.8464e-08
1008.2	8.8935e-08
1008.4	8.9408e-08
1008.6	8.9921e-08
1008.8	9.0358e-08
1009.0	9.0797e-08
1009.2	9.1239e-08
1009.4	9.1682e-08
1009.6	9.2129e-08
1009.8	9.6133e-08
1010.0	9.5887e-08
1010.2	9.5642e-08
1010.4	9.5396e-08
1010.6	9.5152e-08
1010.8	9.4908e-08
1011.0	1.0833e-07
1011.2	1.0646e-07
1011.4	1.0462e-07
1011.6	1.0282e-07
1011.8	1.0104e-07
1012.0	9.9299e-08
1012.2	1.2044e-07
1012.4	1.1656e-07
1012.6	1.1281e-07
1012.8	1.0918e-07
1013.0	1.0566e-07
1013.2	1.0226e-07
1013.4	1.0182e-07
1013.6	1.026e-07
1013.8	1.0339e-07
1014.0	1.0419e-07
1014.2	1.0499e-07
1014.4	1.058e-07
1014.6	1.0617e-07
1014.8	1.0691e-07
1015.0	1.0766e-07
1015.2	1.0842e-07
1015.4	1.0918e-07
1015.6	1.0994e-07
1015.8	1.1022e-07
1016.0	1.2679e-07
1016.2	1.4586e-07
1016.4	1.6778e-07
1016.6	1.9301e-07
1016.8	2.2203e-07
1017.0	4.5149e-07
1017.2	3.4934e-07
1017.4	2.7031e-07
1017.6	2.0916e-07
1017.8	1.6184e-07
1018.0	1.2522e-07
1018.2	1.1853e-07
1018.4	1.1931e-07
1018.6	1.201e-07
1018.8	1.2089e-07
1019.0	1.2168e-07
1019.2	1.2248e-07
1019.4	2.3508e-07
1019.6	2.0922e-07
1019.8	1.8621e-07
1020.0	1.6573e-07
1020.2	1.4751e-07
1020.4	1.3129e-07
1020.6	3.8193e-07
1020.8	3.6566e-07
1021.0	3.5007e-07
1021.2	3.3515e-07
1021.4	3.2086e-07
1021.6	3.0719e-07
1021.8	3.0565e-07
1022.0	3.5281e-07
1022.2	4.0727e-07
1022.4	4.7012e-07
1022.6	5.4268e-07
1022.8	6.2644e-07
1023.0	3.2235e-07
1023.2	3.2472e-07
1023.4	3.2711e-07
1023.6	3.2951e-07
1023.8	3.3193e-07
1024.0	3.3437e-07
1024.2	3.343e-07
1024.4	3.3685e-07
1024.6	3.394e-07
1024.8	3.4199e-07
1025.0	3.4458e-07
1025.2	3.4721e-07
1025.4	3.4767e-07
1025.6	3.5044e-07
1025.8	3.5323e-07
1026.0	3.5605e-07
1026.2	3.5888e-07
1026.4	3.6175e-07
1026.6	3.619e-07
1026.8	3.6503e-07
1027.0	3.6818e-07
1027.2	3.7137e-07
1027.4	3.7458e-07
1027.6	3.7782e-07
1027.8	3.7776e-07
1028.0	3.8122e-07
1028.2	3.8471e-07
1028.4	3.8824e-07
1028.6	3.9179e-07
1028.8	3.9538e-07
1029.0	3.9587e-07
1029.2	5.4528e-07
1029.4	7.5107e-07
1029.6	1.0345e-06
1029.8	1.425e-06
1030.0	1.9628e-06
1030.2	4.1827e-07
1030.4	4.215e-07
1030.6	4.2476e-07
1030.8	4.2806e-07
1031.0	4.3137e-07
1031.2	4.3471e-07
1031.4	4.3231e-07
1031.6	4.3563e-07
1031.8	4.3898e-07
1032.0	4.4236e-07
1032.2	4.4577e-07
1032.4	4.4919e-07
1032.6	4.4984e-07
1032.8	4.5386e-07
1033.0	4.5792e-07
1033.2	4.6203e-07
1033.4	4.6616e-07
1033.6	4.7034e-07
1033.8	4.7088e-07
1034.0	4.7594e-07
1034.2	4.8106e-07
1034.4	4.8623e-07
1034.6	4.9146e-07
1034.8	4.9675e-07
1035.0	4.952e-07
1035.2	4.9966e-07
1035.4	5.0417e-07
1035.6	5.0871e-07
1035.8	5.133e-07
1036.0	5.1792e-07
1036.2	5.2165e-07
1036.4	6.4992e-07
1036.6	8.0973e-07
1036.8	1.0088e-06
1037.0	1.257e-06
1037.2	1.566e-06
1037.4	5.6048e-07
1037.6	5.6248e-07
1037.8	5.6448e-07
1038.0	5.6651e-07
1038.2	5.6853e-07
1038.4	5.7056e-07
1038.6	5.6938e-07
1038.8	5.7628e-07
1039.0	5.8326e-07
1039.2	5.9033e-07
1039.4	5.9749e-07
1039.6	6.0472e-07
1039.8	6.0458e-07
1040.0	5.3495e-07
1040.2	4.7332e-07
1040.4	4.188e-07
1040.6	3.7056e-07
1040.8	3.2788e-07
1041.0	3.1908e-07
1041.2	3.2335e-07
1041.4	3.277e-07
1041.6	3.321e-07
1041.8	3.3656e-07
1042.0	3.4107e-07
1042.2	3.4115e-07
1042.4	3.4473e-07
1042.6	3.4834e-07
1042.8	3.5199e-07
1043.0	3.5567e-07
1043.2	3.5941e-07
1043.4	3.6019e-07
1043.6	3.6421e-07
1043.8	3.6826e-07
1044.0	3.7237e-07
1044.2	3.7651e-07
1044.4	3.8071e-07
1044.6	4.0716e-07
1044.8	4.0526e-07
1045.0	4.0336e-07
1045.2	4.0147e-07
1045.4	3.996e-07
1045.6	3.9773e-07
1045.8	3.945e-07
1046.0	3.9873e-07
1046.2	4.0301e-07
1046.4	4.0733e-07
1046.6	4.117e-07
1046.8	4.1613e-07
1047.0	8.2385e-07
1047.2	7.2752e-07
1047.4	6.4245e-07
1047.6	5.6733e-07
1047.8	5.0099e-07
1048.0	4.4241e-07
1048.2	4.7935e-07
1048.4	4.7298e-07
1048.6	4.6671e-07
1048.8	4.6051e-07
1049.0	4.5439e-07
1049.2	4.4836e-07
1049.4	8.8842e-07
1049.6	7.8367e-07
1049.8	6.9127e-07
1050.0	6.0975e-07
1050.2	5.3786e-07
1050.4	4.7444e-07
1050.6	2.194e-06
1050.8	1.6344e-06
1051.0	1.2176e-06
1051.2	9.0696e-07
1051.4	6.7563e-07
1051.6	5.033e-07
1051.8	4.7196e-07
1052.0	4.7657e-07
1052.2	4.8121e-07
1052.4	4.859e-07
1052.6	4.9064e-07
1052.8	4.9543e-07
1053.0	4.957e-07
1053.2	4.9853e-07
1053.4	5.0139e-07
1053.6	5.0425e-07
1053.8	5.0713e-07
1054.0	5.1003e-07
1054.2	1.0121e-06
1054.4	1.1046e-06
1054.6	1.2056e-06
1054.8	1.3157e-06
1055.0	1.436e-06
1055.2	1.5672e-06
1055.4	5.2593e-07
1055.6	5.3045e-07
1055.8	5.3503e-07
1056.0	5.3963e-07
1056.2	5.4429e-07
1056.4	5.4898e-07
1056.6	1.0801e-06
1056.8	9.555e-07
1057.0	8.4528e-07
1057.2	7.4777e-07
1057.4	6.615e-07
1057.6	5.852e-07
1057.8	1.097e-06
1058.0	9.7155e-07
1058.2	8.604e-07
1058.4	7.6198e-07
1058.6	6.7481e-07
1058.8	5.9761e-07
1059.0	1.7226e-06
1059.2	1.4085e-06
1059.4	1.1518e-06
1059.6	9.4178e-07
1059.8	7.7007e-07
1060.0	6.2969e-07
1060.2	6.0084e-07
1060.4	5.9074e-07
1060.6	5.8082e-07
1060.8	5.7107e-07
1061.0	5.6148e-07
1061.2	5.5205e-07
1061.4	5.4524e-07
1061.6	6.277e-07
1061.8	7.2264e-07
1062.0	8.3194e-07
1062.2	9.5778e-07
1062.4	1.1026e-06
1062.6	5.7224e-07
1062.8	7.5229e-07
1063.0	9.8899e-07
1063.2	1.3001e-06
1063.4	1.7092e-06
1063.6	2.247e-06
1063.8	5.8411e-07
1064.0	5.8854e-07
1064.2	5.9301e-07
1064.4	5.9751e-07
1064.6	6.0205e-07
1064.8	6.0661e-07
1065.0	6.3981e-07
1065.2	6.3781e-07
1065.4	6.3583e-07
1065.6	6.3384e-07
1065.8	6.3187e-07
1066.0	6.299e-07
1066.2	1.8035e-06
1066.4	2.0225e-06
1066.6	2.2679e-06
1066.8	2.5431e-06
1067.0	2.8518e-06
1067.2	3.1978e-06
1067.4	3.1925e-06
1067.6	3.3508e-06
1067.8	3.5169e-06
1068.0	3.6912e-06
1068.2	3.8743e-06
1068.4	4.0663e-06
1068.6	8.0768e-06
1068.8	1.0996e-05
1069.0	1.4968e-05
1069.2	2.0377e-05
1069.4	2.7742e-05
1069.6	3.7766e-05
1069.8	4.9342e-05
1070.0	8.1545e-05
1070.2	1.3477e-04
1070.4	2.2271e-04
1070.6	3.6807e-04
1070.8	6.0827e-04
1071.0	9.0996e-04
1071.2	0.00161
1071.4	0.00285
1071.6	0.00506
1071.8	0.00897
1072.0	0.01588
1072.2	0.02532
1072.4	0.04267
1072.6	0.0719
1072.8	0.12115
1073.0	0.20412
1073.2	0.34394
1073.4	0.5058
1073.6	0.57087
1073.8	0.64432
1074.0	0.72721
1074.2	0.82077
1074.4	0.92637
1074.6	0.95387
1074.8	0.95693
1075.0	0.95999
1075.2	0.96307
1075.4	0.96615
1075.6	0.96924
1075.8	0.96895
1076.0	0.9696
1076.2	0.97026
1076.4	0.97091
1076.6	0.97156
1076.8	0.97222
1077.0	0.97387
1077.2	0.973
1077.4	0.97212
1077.6	0.97126
1077.8	0.97039
1078.0	0.96953
1078.2	0.96866
1078.4	0.9696
1078.6	0.97054
1078.8	0.97148
1079.0	0.97242
1079.2	0.97337
1079.4	0.97488
1079.6	0.97535
1079.8	0.97582
1080.0	0.97629
1080.2	0.97676
1080.4	0.97723
1080.6	0.97906
1080.8	0.97829
1081.0	0.97751
1081.2	0.97674
1081.4	0.97597
1081.6	0.9752
1081.8	0.97435
1082.0	0.97472
1082.2	0.9751
1082.4	0.97548
1082.6	0.97586
1082.8	0.97623
1083.0	0.97609
1083.2	0.97716
1083.4	0.97824
1083.6	0.97932
1083.8	0.98039
1084.0	0.98147
1084.2	0.98029
1084.4	0.98021
1084.6	0.98013
1084.8	0.98006
1085.0	0.97997
1085.2	0.97989
1085.4	0.98022
1085.6	0.9789
1085.8	0.97757
1086.0	0.97707
1086.2	0.97776
1086.4	0.97712
1086.6	0.97821
1086.8	0.97747
1087.0	0.97723
1087.2	0.97741
1087.4	0.97729
1087.6	0.97848
1087.8	0.97884
1088.0	0.97878
1088.2	0.98009
1088.4	0.98142
1088.6	0.98328
1088.8	0.98156
1089.0	0.98206
1089.2	0.98352
1089.4	0.98355
1089.6	0.98302
1089.8	0.98482
1090.0	0.98382
1090.2	0.98085
1090.4	0.98023
1090.6	0.97931
1090.8	0.98046
1091.0	0.9791
1091.2	0.98003
1091.4	0.97889
1091.6	0.97925
1091.8	0.97577
1092.0	0.97579
1092.2	0.97563
1092.4	0.97458
1092.6	0.97509
1092.8	0.9757
1093.0	0.97753
1093.2	0.976
1093.4	0.97734
1093.6	0.97651
1093.8	0.9778
1094.0	0.97982
1094.2	0.97965
1094.4	0.9806
1094.6	0.97971
1094.8	0.98219
1095.0	0.98146
1095.2	0.98325
1095.4	0.98182
1095.6	0.98327
1095.8	0.98405
1096.0	0.98342
1096.2	0.98287
1096.4	0.98189
1096.6	0.98269
1096.8	0.98177
1097.0	0.98169
1097.2	0.98129
1097.4	0.97988
1097.6	0.98073
1097.8	0.97794
1098.0	0.98053
1098.2	0.97536
1098.4	0.97783
1098.6	0.97916
1098.8	0.97735
1099.0	0.97773
1099.2	0.97722
1099.4	0.97735
1099.6	0.97742
1099.8	0.97691
1100.0	0.97943
1100.2	0.97927
1100.4	0.9783
1100.6	0.98134
1100.8	0.97899
1101.0	0.98123
1101.2	0.97855
1101.4	0.98073
1101.6	0.98229
1101.8	0.98087
1102.0	0.98396
1102.2	0.9818
1102.4	0.98276
1102.6	0.98505
1102.8	0.98272
1103.0	0.98114
1103.2	0.98382
1103.4	0.98348
1103.6	0.98207
1103.8	0.98351
1104.0	0.9812
1104.2	0.98019
1104.4	0.98023
1104.6	0.98022
1104.8	0.98083
1105.0	0.97757
1105.2	0.97822
1105.4	0.97782
1105.6	0.97612
1105.8	0.97685
1106.0	0.97538
1106.2	0.97474
1106.4	0.97741
1106.6	0.97507
1106.8	0.97695
1107.0	0.97489
1107.2	0.97689
1107.4	0.97984
1107.6	0.97667
1107.8	0.97872
1108.0	0.97766
1108.2	0.97679
1108.4	0.98
1108.6	0.98151
1108.8	0.97651
1109.0	0.98187
1109.2	0.9799
1109.4	0.97981
1109.6	0.98211
1109.8	0.98507
1110.0	0.98385
1110.2	0.98504
1110.4	0.98527
1110.6	0.98497
1110.8	0.9862
1111.0	0.98529
1111.2	0.98564
1111.4	0.98545
1111.6	0.98395
1111.8	0.9825
1112.0	0.9834
1112.2	0.98259
1112.4	0.98466
1112.6	0.98091
1112.8	0.98086
1113.0	0.98115
1113.2	0.97892
1113.4	0.97979
1113.6	0.97621
1113.8	0.97574
1114.0	0.9776
1114.2	0.97566
1114.4	0.98066
1114.6	0.97761
1114.8	0.97705
1115.0	0.97657
1115.2	0.97713
1115.4	0.97809
1115.6	0.97975
1115.8	0.97763
1116.0	0.97633
1116.2	0.97696
1116.4	0.97911
1116.6	0.97743
1116.8	0.9784
1117.0	0.98029
1117.2	0.9805
1117.4	0.98374
1117.6	0.98376
1117.8	0.98249
1118.0	0.98299
1118.2	0.98308
1118.4	0.98353
1118.6	0.98698
1118.8	0.98346
1119.0	0.98616
1119.2	0.98495
1119.4	0.98663
1119.6	0.98451
1119.8	0.98561
1120.0	0.98517
1120.2	0.98498
1120.4	0.98479
1120.6	0.98461
1120.8	0.98442
1121.0	0.98423
1121.2	0.98398
1121.4	0.98372
1121.6	0.98347
1121.8	0.98322
1122.0	0.98296
1122.2	0.9825
1122.4	0.98203
1122.6	0.98157
1122.8	0.98111
1123.0	0.98065
1123.2	0.98023
1123.4	0.97981
1123.6	0.97939
1123.8	0.97897
1124.0	0.97858
1124.2	0.97903
1124.4	0.97949
1124.6	0.97994
1124.8	0.9804
1125.0	0.98085
1125.2	0.98066
1125.4	0.98048
1125.6	0.9803
1125.8	0.98011
1126.0	0.97994
1126.2	0.97994
1126.4	0.97995
1126.6	0.97996
1126.8	0.97996
1127.0	0.97998
1127.2	0.9804
1127.4	0.98083
1127.6	0.98126
1127.8	0.98169
1128.0	0.98212
1128.2	0.98265
1128.4	0.98319
1128.6	0.98373
1128.8	0.98427
1129.0	0.98479
1129.2	0.98456
1129.4	0.98433
1129.6	0.98409
1129.8	0.98386
1130.0	0.98363
1130.2	0.98353
1130.4	0.98343
1130.6	0.98334
1130.8	0.98324
1131.0	0.98314
1131.2	0.9831
1131.4	0.98306
1131.6	0.98301
1131.8	0.98297
1132.0	0.98292
1132.2	0.98239
1132.4	0.98187
1132.6	0.98134
1132.8	0.98081
1133.0	0.98029
1133.2	0.97974
1133.4	0.97919
1133.6	0.97865
1133.8	0.9781
1134.0	0.97757
1134.2	0.97758
1134.4	0.97758
1134.6	0.97759
1134.8	0.97759
1135.0	0.9776
1135.2	0.97726
1135.4	0.97692
1135.6	0.97658
1135.8	0.97625
1136.0	0.97598
1136.2	0.97724
1136.4	0.97851
1136.6	0.97977
1136.8	0.98104
1137.0	0.98229
1137.2	0.98279
1137.4	0.98329
1137.6	0.98379
1137.8	0.9843
1138.0	0.98479
1138.2	0.98455
1138.4	0.98431
1138.6	0.98407
1138.8	0.98383
1139.0	0.98359
1139.2	0.98349
1139.4	0.98338
1139.6	0.98328
1139.8	0.98318
1140.0	0.98307
1140.2	0.98296
1140.4	0.98285
1140.6	0.98274
1140.8	0.98263
1141.0	0.98251
1141.2	0.98213
1141.4	0.98174
1141.6	0.98135
1141.8	0.98096
1142.0	0.98059
1142.2	0.98037
1142.4	0.98015
1142.6	0.97993
1142.8	0.97971
1143.0	0.97949
1143.2	0.97917
1143.4	0.97885
1143.6	0.97853
1143.8	0.97821
1144.0	0.9779
1144.2	0.97781
1144.4	0.97773
1144.6	0.97764
1144.8	0.97756
1145.0	0.9775
1145.2	0.97792
1145.4	0.97834
1145.6	0.97876
1145.8	0.97918
1146.0	0.9796
1146.2	0.97996
1146.4	0.98033
1146.6	0.98069
1146.8	0.98105
1147.0	0.98141
1147.2	0.98152
1147.4	0.98163
1147.6	0.98174
1147.8	0.98185
1148.0	0.98196
1148.2	0.98231
1148.4	0.98266
1148.6	0.98301
1148.8	0.98336
1149.0	0.9837
1149.2	0.98373
1149.4	0.98376
1149.6	0.9838
1149.8	0.98383
1150.0	0.98385
1150.2	0.98382
1150.4	0.9838
1150.6	0.98377
1150.8	0.98374
1151.0	0.98371
1151.2	0.98354
1151.4	0.98336
1151.6	0.98319
1151.8	0.98302
1152.0	0.98285
1152.2	0.98256
1152.4	0.98227
1152.6	0.98197
1152.8	0.98168
1153.0	0.98139
1153.2	0.9811
1153.4	0.98081
1153.6	0.98051
1153.8	0.98022
1154.0	0.97993
1154.2	0.97972
1154.4	0.9795
1154.6	0.97928
1154.8	0.97907
1155.0	0.97886
1155.2	0.97874
1155.4	0.97862
1155.6	0.9785
1155.8	0.97838
1156.0	0.97827
1156.2	0.97846
1156.4	0.97865
1156.6	0.97885
1156.8	0.97904
1157.0	0.97923
1157.2	0.97934
1157.4	0.97945
1157.6	0.97956
1157.8	0.97968
1158.0	0.97979
1158.2	0.97997
1158.4	0.98016
1158.6	0.98034
1158.8	0.98053
1159.0	0.98071
1159.2	0.9808
1159.4	0.9809
1159.6	0.98099
1159.8	0.98109
1160.0	0.98118
1160.2	0.98149
1160.4	0.9818
1160.6	0.98211
1160.8	0.98242
1161.0	0.98273
1161.2	0.98244
1161.4	0.98216
1161.6	0.98188
1161.8	0.9816
1162.0	0.98132
1162.2	0.98128
1162.4	0.98125
1162.6	0.98121
1162.8	0.98118
1163.0	0.98113
1163.2	0.98094
1163.4	0.98075
1163.6	0.98056
1163.8	0.98036
1164.0	0.98018
1164.2	0.98006
1164.4	0.97995
1164.6	0.97984
1164.8	0.97972
1165.0	0.97961
1165.2	0.97948
1165.4	0.97936
1165.6	0.97923
1165.8	0.9791
1166.0	0.97898
1166.2	0.97894
1166.4	0.97891
1166.6	0.97887
1166.8	0.97883
1167.0	0.97881
1167.2	0.97896
1167.4	0.97911
1167.6	0.97927
1167.8	0.97942
1168.0	0.97957
1168.2	0.97972
1168.4	0.97986
1168.6	0.98001
1168.8	0.98015
1169.0	0.9803
1169.2	0.98046
1169.4	0.98063
1169.6	0.98079
1169.8	0.98095
1170.0	0.98112
1170.2	0.9813
1170.4	0.98149
1170.6	0.98168
1170.8	0.98186
1171.0	0.98205
1171.2	0.98216
1171.4	0.98227
1171.6	0.98239
1171.8	0.9825
1172.0	0.98261
1172.2	0.9827
1172.4	0.98279
1172.6	0.98289
1172.8	0.98298
1173.0	0.98307
1173.2	0.98295
1173.4	0.98283
1173.6	0.98271
1173.8	0.98259
1174.0	0.98248
1174.2	0.9824
1174.4	0.98232
1174.6	0.98224
1174.8	0.98216
1175.0	0.98207
1175.2	0.98176
1175.4	0.98145
1175.6	0.98115
1175.8	0.98084
1176.0	0.98053
1176.2	0.98042
1176.4	0.9803
1176.6	0.98019
1176.8	0.98007
1177.0	0.97996
1177.2	0.97981
1177.4	0.97967
1177.6	0.97952
1177.8	0.97938
1178.0	0.97924
1178.2	0.97925
1178.4	0.97926
1178.6	0.97927
1178.8	0.97928
1179.0	0.97929
1179.2	0.97929
1179.4	0.97928
1179.6	0.97927
1179.8	0.97927
1180.0	0.97927
1180.2	0.97946
1180.4	0.97966
1180.6	0.97985
1180.8	0.98004
1181.0	0.98023
1181.2	0.98036
1181.4	0.98049
1181.6	0.98062
1181.8	0.98074
1182.0	0.98087
1182.2	0.98106
1182.4	0.98125
1182.6	0.98143
1182.8	0.98162
1183.0	0.9818
1183.2	0.98188
1183.4	0.98195
1183.6	0.98202
1183.8	0.98209
1184.0	0.98216
1184.2	0.98215
1184.4	0.98215
1184.6	0.98215
1184.8	0.98214
1185.0	0.98214
1185.2	0.98213
1185.4	0.98213
1185.6	0.98212
1185.8	0.98212
1186.0	0.9821
1186.2	0.98193
1186.4	0.98176
1186.6	0.98159
1186.8	0.98142
1187.0	0.98125
1187.2	0.98108
1187.4	0.98091
1187.6	0.98074
1187.8	0.98057
1188.0	0.9804
1188.2	0.98008
1188.4	0.97977
1188.6	0.97946
1188.8	0.97915
1189.0	0.97884
1189.2	0.97879
1189.4	0.97873
1189.6	0.97867
1189.8	0.97862
1190.0	0.97856
1190.2	0.97847
1190.4	0.97837
1190.6	0.97828
1190.8	0.97818
1191.0	0.97809
1191.2	0.97821
1191.4	0.97834
1191.6	0.97846
1191.8	0.97859
1192.0	0.97872
1192.2	0.97892
1192.4	0.97912
1192.6	0.97932
1192.8	0.97953
1193.0	0.97973
1193.2	0.97998
1193.4	0.98023
1193.6	0.98048
1193.8	0.98073
1194.0	0.98099
1194.2	0.9813
1194.4	0.98161
1194.6	0.98192
1194.8	0.98223
1195.0	0.98254
1195.2	0.98288
1195.4	0.98323
1195.6	0.98357
1195.8	0.98391
1196.0	0.98425
1196.2	0.98439
1196.4	0.98453
1196.6	0.98467
1196.8	0.98481
1197.0	0.98495
1197.2	0.98518
1197.4	0.98541
1197.6	0.98564
1197.8	0.98587
1198.0	0.9861
1198.2	0.98604
1198.4	0.98598
1198.6	0.98591
1198.8	0.98585
1199.0	0.98579
1199.2	0.98569
1199.4	0.98559
1199.6	0.98549
1199.8	0.98539
1200.0	0.98529
1200.2	0.9851
1200.4	0.98491
1200.6	0.98471
1200.8	0.98452
1201.0	0.98432
1201.2	0.98399
1201.4	0.98366
1201.6	0.98333
1201.8	0.98299
1202.0	0.98266
1202.2	0.98247
1202.4	0.98228
1202.6	0.98209
1202.8	0.9819
1203.0	0.98171
1203.2	0.98157
1203.4	0.98142
1203.6	0.98127
1203.8	0.98112
1204.0	0.98097
1204.2	0.98081
1204.4	0.98065
1204.6	0.98049
1204.8	0.98033
1205.0	0.98018
1205.2	0.9801
1205.4	0.98003
1205.6	0.97995
1205.8	0.97988
1206.0	0.97981
1206.2	0.97999
1206.4	0.98017
1206.6	0.98035
1206.8	0.98053
1207.0	0.98071
1207.2	0.98084
1207.4	0.98096
1207.6	0.98109
1207.8	0.98121
1208.0	0.98134
1208.2	0.98149
1208.4	0.98164
1208.6	0.98179
1208.8	0.98194
1209.0	0.98209
1209.2	0.98231
1209.4	0.98254
1209.6	0.98276
1209.8	0.98298
1210.0	0.98321
1210.2	0.98337
1210.4	0.98353
1210.6	0.98369
1210.8	0.98385
1211.0	0.98401
1211.2	0.98415
1211.4	0.98429
1211.6	0.98444
1211.8	0.98458
1212.0	0.98472
1212.2	0.98462
1212.4	0.98451
1212.6	0.98441
1212.8	0.98431
1213.0	0.98421
1213.2	0.98408
1213.4	0.98395
1213.6	0.98382
1213.8	0.98369
1214.0	0.98356
1214.2	0.98342
1214.4	0.98328
1214.6	0.98314
1214.8	0.983
1215.0	0.98287
1215.2	0.98279
1215.4	0.98272
1215.6	0.98265
1215.8	0.98258
1216.0	0.9825
1216.2	0.98206
1216.4	0.98162
1216.6	0.98118
1216.8	0.98074
1217.0	0.9803
1217.2	0.98044
1217.4	0.98058
1217.6	0.98072
1217.8	0.98086
1218.0	0.98099
1218.2	0.98087
1218.4	0.98075
1218.6	0.98063
1218.8	0.9805
1219.0	0.98039
1219.2	0.98036
1219.4	0.98034
1219.6	0.98032
1219.8	0.9803
1220.0	0.98028
1220.2	0.98033
1220.4	0.98037
1220.6	0.98042
1220.8	0.98047
1221.0	0.98052
1221.2	0.98067
1221.4	0.98082
1221.6	0.98097
1221.8	0.98111
1222.0	0.98126
1222.2	0.9814
1222.4	0.98154
1222.6	0.98168
1222.8	0.98182
1223.0	0.98196
1223.2	0.98214
1223.4	0.98232
1223.6	0.98251
1223.8	0.98269
1224.0	0.98287
1224.2	0.98301
1224.4	0.98316
1224.6	0.98331
1224.8	0.98345
1225.0	0.9836
1225.2	0.98362
1225.4	0.98363
1225.6	0.98365
1225.8	0.98367
1226.0	0.98368
1226.2	0.98373
1226.4	0.98379
1226.6	0.98384
1226.8	0.98389
1227.0	0.98394
1227.2	0.98389
1227.4	0.98385
1227.6	0.98381
1227.8	0.98377
1228.0	0.98372
1228.2	0.98362
1228.4	0.98352
1228.6	0.98341
1228.8	0.98331
1229.0	0.9832
1229.2	0.98304
1229.4	0.98287
1229.6	0.9827
1229.8	0.98253
1230.0	0.98237
1230.2	0.98227
1230.4	0.98217
1230.6	0.98208
1230.8	0.98198
1231.0	0.98188
1231.2	0.98171
1231.4	0.98154
1231.6	0.98137
1231.8	0.9812
1232.0	0.98103
1232.2	0.98101
1232.4	0.98098
1232.6	0.98096
1232.8	0.98093
1233.0	0.98091
1233.2	0.98085
1233.4	0.98078
1233.6	0.98072
1233.8	0.98066
1234.0	0.9806
1234.2	0.98072
1234.4	0.98084
1234.6	0.98095
1234.8	0.98107
1235.0	0.98118
1235.2	0.98123
1235.4	0.98128
1235.6	0.98132
1235.8	0.98137
1236.0	0.98142
1236.2	0.9818
1236.4	0.98219
1236.6	0.98258
1236.8	0.98297
1237.0	0.98335
1237.2	0.98351
1237.4	0.98366
1237.6	0.98381
1237.8	0.98396
1238.0	0.98411
1238.2	0.98425
1238.4	0.9844
1238.6	0.98454
1238.8	0.98468
1239.0	0.98482
1239.2	0.98499
1239.4	0.98515
1239.6	0.98531
1239.8	0.98547
1240.0	0.98564
1240.2	0.98582
1240.4	0.98601
1240.6	0.98619
1240.8	0.98637
1241.0	0.98655
1241.2	0.98646
1241.4	0.98636
1241.6	0.98627
1241.8	0.98617
1242.0	0.98608
1242.2	0.98623
1242.4	0.98638
1242.6	0.98652
1242.8	0.98667
1243.0	0.98681
1243.2	0.98649
1243.4	0.98617
1243.6	0.98585
1243.8	0.98553
1244.0	0.98523
1244.2	0.98518
1244.4	0.98513
1244.6	0.98508
1244.8	0.98504
1245.0	0.98498
1245.2	0.98474
1245.4	0.9845
1245.6	0.98426
1245.8	0.98402
1246.0	0.98378
1246.2	0.98361
1246.4	0.98343
1246.6	0.98326
1246.8	0.98309
1247.0	0.98292
1247.2	0.98277
1247.4	0.98262
1247.6	0.98248
1247.8	0.98233
1248.0	0.98218
1248.2	0.98207
1248.4	0.98196
1248.6	0.98185
1248.8	0.98174
1249.0	0.98164
1249.2	0.98166
1249.4	0.98169
1249.6	0.98172
1249.8	0.98175
1250.0	0.98178
1250.2	0.98175
1250.4	0.98173
1250.6	0.98171
1250.8	0.98168
1251.0	0.98167
1251.2	0.98185
1251.4	0.98202
1251.6	0.9822
1251.8	0.98238
1252.0	0.98255
1252.2	0.98263
1252.4	0.9827
1252.6	0.98277
1252.8	0.98285
1253.0	0.98293
1253.2	0.98306
1253.4	0.98319
1253.6	0.98333
1253.8	0.98346
1254.0	0.9836
1254.2	0.98376
1254.4	0.98392
1254.6	0.98407
1254.8	0.98423
1255.0	0.98439
1255.2	0.98451
1255.4	0.98463
1255.6	0.98475
1255.8	0.98487
1256.0	0.98499
1256.2	0.98505
1256.4	0.98511
1256.6	0.98516
1256.8	0.98522
1257.0	0.98528
1257.2	0.98535
1257.4	0.98543
1257.6	0.9855
1257.8	0.98558
1258.0	0.98565
1258.2	0.98565
1258.4	0.98564
1258.6	0.98564
1258.8	0.98563
1259.0	0.98563
1259.2	0.98564
1259.4	0.98566
1259.6	0.98567
1259.8	0.98569
1260.0	0.9857
1260.2	0.98555
1260.4	0.98541
1260.6	0.98526
1260.8	0.98511
1261.0	0.98497
1261.2	0.98487
1261.4	0.98478
1261.6	0.98468
1261.8	0.98459
1262.0	0.98449
1262.2	0.98437
1262.4	0.98425
1262.6	0.98413
1262.8	0.98401
1263.0	0.98389
1263.2	0.98381
1263.4	0.98373
1263.6	0.98364
1263.8	0.98356
1264.0	0.98348
1264.2	0.98347
1264.4	0.98347
1264.6	0.98346
1264.8	0.98346
1265.0	0.98344
1265.2	0.98332
1265.4	0.98319
1265.6	0.98307
1265.8	0.98294
1266.0	0.98282
1266.2	0.98283
1266.4	0.98285
1266.6	0.98287
1266.8	0.98288
1267.0	0.9829
1267.2	0.98311
1267.4	0.98331
1267.6	0.98351
1267.8	0.98371
1268.0	0.98391
1268.2	0.98376
1268.4	0.98361
1268.6	0.98346
1268.8	0.98331
1269.0	0.98317
1269.2	0.98322
1269.4	0.98326
1269.6	0.98331
1269.8	0.98335
1270.0	0.9834
1270.2	0.98344
1270.4	0.98349
1270.6	0.98354
1270.8	0.98358
1271.0	0.98363
1271.2	0.98361
1271.4	0.9836
1271.6	0.98358
1271.8	0.98356
1272.0	0.98355
1272.2	0.98366
1272.4	0.98376
1272.6	0.98387
1272.8	0.98398
1273.0	0.98408
1273.2	0.98425
1273.4	0.98442
1273.6	0.98459
1273.8	0.98476
1274.0	0.98492
1274.2	0.9848
1274.4	0.98468
1274.6	0.98456
1274.8	0.98444
1275.0	0.98432
1275.2	0.98415
1275.4	0.98398
1275.6	0.98381
1275.8	0.98364
1276.0	0.98347
1276.2	0.98351
1276.4	0.98355
1276.6	0.98358
1276.8	0.98362
1277.0	0.98366
1277.2	0.98367
1277.4	0.98369
1277.6	0.9837
1277.8	0.98372
1278.0	0.98373
1278.2	0.9838
1278.4	0.98387
1278.6	0.98394
1278.8	0.98401
1279.0	0.98408
1279.2	0.98406
1279.4	0.98405
1279.6	0.98403
1279.8	0.98401
1280.0	0.98399
1280.2	0.9841
1280.4	0.98421
1280.6	0.98432
1280.8	0.98443
1281.0	0.98453
1281.2	0.98459
1281.4	0.98465
1281.6	0.98471
1281.8	0.98476
1282.0	0.98482
1282.2	0.98502
1282.4	0.98521
1282.6	0.9854
1282.8	0.98559
1283.0	0.98578
1283.2	0.98593
1283.4	0.98608
1283.6	0.98623
1283.8	0.98637
1284.0	0.98652
1284.2	0.98662
1284.4	0.98671
1284.6	0.98681
1284.8	0.98691
1285.0	0.987
1285.2	0.98702
1285.4	0.98705
1285.6	0.98707
1285.8	0.9871
1286.0	0.98713
1286.2	0.98729
1286.4	0.98746
1286.6	0.98762
1286.8	0.98778
1287.0	0.98794
1287.2	0.98791
1287.4	0.98787
1287.6	0.98784
1287.8	0.9878
1288.0	0.98777
1288.2	0.98784
1288.4	0.98792
1288.6	0.988
1288.8	0.98808
1289.0	0.98815
1289.2	0.98804
1289.4	0.98794
1289.6	0.98783
1289.8	0.98772
1290.0	0.98763
1290.2	0.9878
1290.4	0.98797
1290.6	0.98814
1290.8	0.98831
1291.0	0.98847
1291.2	0.98819
1291.4	0.98791
1291.6	0.98763
1291.8	0.98735
1292.0	0.98707
1292.2	0.98685
1292.4	0.98664
1292.6	0.98642
1292.8	0.9862
1293.0	0.98598
1293.2	0.98603
1293.4	0.98607
1293.6	0.98611
1293.8	0.98615
1294.0	0.98618
1294.2	0.98604
1294.4	0.9859
1294.6	0.98576
1294.8	0.98562
1295.0	0.98548
1295.2	0.98558
1295.4	0.98568
1295.6	0.98578
1295.8	0.98588
1296.0	0.98597
1296.2	0.98573
1296.4	0.9855
1296.6	0.98526
1296.8	0.98503
1297.0	0.98479
1297.2	0.9848
1297.4	0.9848
1297.6	0.9848
1297.8	0.9848
1298.0	0.98481
1298.2	0.98483
1298.4	0.98485
1298.6	0.98487
1298.8	0.98489
1299.0	0.9849
1299.2	0.98488
1299.4	0.98486
1299.6	0.98484
1299.8	0.98482
1300.0	0.9848
1300.2	0.98476
1300.4	0.98472
1300.6	0.98468
1300.8	0.98463
1301.0	0.98459
1301.2	0.98458
1301.4	0.98457
1301.6	0.98456
1301.8	0.98454
1302.0	0.98453
1302.2	0.98469
1302.4	0.98485
1302.6	0.98501
1302.8	0.98517
1303.0	0.98532
1303.2	0.98528
1303.4	0.98524
1303.6	0.9852
1303.8	0.98516
1304.0	0.98512
1304.2	0.98523
1304.4	0.98535
1304.6	0.98546
1304.8	0.98558
1305.0	0.98568
1305.2	0.98554
1305.4	0.98539
1305.6	0.98525
1305.8	0.9851
1306.0	0.98496
1306.2	0.98493
1306.4	0.9849
1306.6	0.98487
1306.8	0.98485
1307.0	0.98482
1307.2	0.98482
1307.4	0.98482
1307.6	0.98482
1307.8	0.98483
1308.0	0.98483
1308.2	0.9848
1308.4	0.98478
1308.6	0.98475
1308.8	0.98473
1309.0	0.98471
1309.2	0.98471
1309.4	0.98472
1309.6	0.98472
1309.8	0.98473
1310.0	0.98473
1310.2	0.98469
1310.4	0.98466
1310.6	0.98462
1310.8	0.98459
1311.0	0.98455
1311.2	0.98454
1311.4	0.98452
1311.6	0.98451
1311.8	0.98449
1312.0	0.98448
1312.2	0.9846
1312.4	0.98472
1312.6	0.98484
1312.8	0.98496
1313.0	0.98508
1313.2	0.9851
1313.4	0.98511
1313.6	0.98513
1313.8	0.98514
1314.0	0.98516
1314.2	0.98532
1314.4	0.98547
1314.6	0.98562
1314.8	0.98577
1315.0	0.98592
1315.2	0.986
1315.4	0.98607
1315.6	0.98614
1315.8	0.98621
1316.0	0.98628
1316.2	0.98634
1316.4	0.9864
1316.6	0.98646
1316.8	0.98651
1317.0	0.98658
1317.2	0.98679
1317.4	0.98701
1317.6	0.98722
1317.8	0.98743
1318.0	0.98765
1318.2	0.98771
1318.4	0.98777
1318.6	0.98783
1318.8	0.98789
1319.0	0.98795
1319.2	0.98808
1319.4	0.9882
1319.6	0.98833
1319.8	0.98846
1320.0	0.98858
1320.2	0.98866
1320.4	0.98874
1320.6	0.98882
1320.8	0.9889
1321.0	0.98897
1321.2	0.98882
1321.4	0.98868
1321.6	0.98854
1321.8	0.98839
1322.0	0.98826
1322.2	0.98838
1322.4	0.98849
1322.6	0.98861
1322.8	0.98873
1323.0	0.98884
1323.2	0.9886
1323.4	0.98836
1323.6	0.98812
1323.8	0.98788
1324.0	0.98765
1324.2	0.98769
1324.4	0.98773
1324.6	0.98777
1324.8	0.98781
1325.0	0.98784
1325.2	0.98766
1325.4	0.98748
1325.6	0.9873
1325.8	0.98712
1326.0	0.98694
1326.2	0.98681
1326.4	0.98668
1326.6	0.98655
1326.8	0.98643
1327.0	0.9863
1327.2	0.98621
1327.4	0.98611
1327.6	0.98602
1327.8	0.98592
1328.0	0.98583
1328.2	0.98564
1328.4	0.98546
1328.6	0.98528
1328.8	0.98509
1329.0	0.98492
1329.2	0.98489
1329.4	0.98487
1329.6	0.98485
1329.8	0.98482
1330.0	0.9848
1330.2	0.98483
1330.4	0.98486
1330.6	0.98489
1330.8	0.98492
1331.0	0.98495
1331.2	0.98501
1331.4	0.98507
1331.6	0.98513
1331.8	0.9852
1332.0	0.98526
1332.2	0.98531
1332.4	0.98537
1332.6	0.98542
1332.8	0.98547
1333.0	0.98553
1333.2	0.9857
1333.4	0.98588
1333.6	0.98605
1333.8	0.98623
1334.0	0.9864
1334.2	0.98655
1334.4	0.98671
1334.6	0.98686
1334.8	0.98701
1335.0	0.98716
1335.2	0.98727
1335.4	0.98738
1335.6	0.9875
1335.8	0.98761
1336.0	0.98773
1336.2	0.98801
1336.4	0.98829
1336.6	0.98857
1336.8	0.98885
1337.0	0.98911
1337.2	0.98904
1337.4	0.98896
1337.6	0.98889
1337.8	0.98882
1338.0	0.98874
1338.2	0.98888
1338.4	0.98902
1338.6	0.98916
1338.8	0.98929
1339.0	0.98943
1339.2	0.98941
1339.4	0.98938
1339.6	0.98936
1339.8	0.98934
1340.0	0.98932
1340.2	0.98937
1340.4	0.98943
1340.6	0.98949
1340.8	0.98955
1341.0	0.9896
1341.2	0.98955
1341.4	0.98949
1341.6	0.98943
1341.8	0.98938
1342.0	0.98932
1342.2	0.98922
1342.4	0.98912
1342.6	0.98902
1342.8	0.98892
1343.0	0.98882
1343.2	0.98868
1343.4	0.98855
1343.6	0.98842
1343.8	0.98829
1344.0	0.98815
1344.2	0.98797
1344.4	0.98779
1344.6	0.98761
1344.8	0.98743
1345.0	0.98724
1345.2	0.98688
1345.4	0.98651
1345.6	0.98614
1345.8	0.98578
1346.0	0.98547
1346.2	0.98722
1346.4	0.98897
1346.6	0.99072
1346.8	0.99248
1347.0	0.99405
1347.2	0.99123
1347.4	0.98841
1347.6	0.9856
1347.8	0.9828
1348.0	0.98004
1348.2	0.98081
1348.4	0.98157
1348.6	0.98234
1348.8	0.98311
1349.0	0.98383
1349.2	0.98272
1349.4	0.98161
1349.6	0.9805
1349.8	0.9794
1350.0	0.97842
1350.2	0.9806
1350.4	0.98279
1350.6	0.98498
1350.8	0.98717
1351.0	0.98929
1351.2	0.98615
1351.4	0.98301
1351.6	0.97988
1351.8	0.97677
1352.0	0.97386
1352.2	0.97725
1352.4	0.98066
1352.6	0.98407
1352.8	0.9875
1353.0	0.99085
1353.2	0.99219
1353.4	0.99354
1353.6	0.99489
1353.8	0.99624
1354.0	0.99762
1354.2	0.999
1354.4	0.999
1354.6	0.999
1354.8	0.999
1355.0	0.999
1355.2	0.999
1355.4	0.999
1355.6	0.999
1355.8	0.99356
1356.0	0.98716
1356.2	0.99103
1356.4	0.99492
1356.6	0.99882
1356.8	0.999
1357.0	0.999
1357.2	0.999
1357.4	0.99545
1357.6	0.98997
1357.8	0.98453
1358.0	0.97934
1358.2	0.98133
1358.4	0.98332
1358.6	0.98532
1358.8	0.98733
1359.0	0.98932
1359.2	0.9882
1359.4	0.98709
1359.6	0.98598
1359.8	0.98487
1360.0	0.98376
1360.2	0.98291
1360.4	0.98205
1360.6	0.9812
1360.8	0.98035
1361.0	0.97967
1361.2	0.98307
1361.4	0.98648
1361.6	0.98991
1361.8	0.99334
1362.0	0.99672
1362.2	0.99555
1362.4	0.99437
1362.6	0.9932
1362.8	0.99203
1363.0	0.99079
1363.2	0.98714
1363.4	0.98351
1363.6	0.9799
1363.8	0.97629
1364.0	0.9731
1364.2	0.97755
1364.4	0.98202
1364.6	0.98652
1364.8	0.99103
1365.0	0.99541
1365.2	0.99392
1365.4	0.99243
1365.6	0.99094
1365.8	0.98946
1366.0	0.98798
1366.2	0.98662
1366.4	0.98526
1366.6	0.9839
1366.8	0.98255
1367.0	0.98123
1367.2	0.9819
1367.4	0.98256
1367.6	0.98323
1367.8	0.9839
1368.0	0.98452
1368.2	0.98406
1368.4	0.9836
1368.6	0.98315
1368.8	0.98269
1369.0	0.98223
1369.2	0.98179
1369.4	0.98135
1369.6	0.98091
1369.8	0.98047
1370.0	0.98004
1370.2	0.97986
1370.4	0.97967
1370.6	0.97949
1370.8	0.9793
1371.0	0.97912
1371.2	0.97921
1371.4	0.97929
1371.6	0.97938
1371.8	0.97947
1372.0	0.97955
1372.2	0.97964
1372.4	0.97973
1372.6	0.97983
1372.8	0.97992
1373.0	0.98
1373.2	0.97983
1373.4	0.97966
1373.6	0.97948
1373.8	0.97931
1374.0	0.97893
1374.2	0.97277
1374.4	0.96666
1374.6	0.96058
1374.8	0.95454
1375.0	0.94868
1375.2	0.9523
1375.4	0.95594
1375.6	0.95959
1375.8	0.96326
1376.0	0.96687
1376.2	0.96829
1376.4	0.96972
1376.6	0.97115
1376.8	0.97258
1377.0	0.97392
1377.2	0.96888
1377.4	0.96387
1377.6	0.95888
1377.8	0.95392
1378.0	0.94936
1378.2	0.95377
1378.4	0.9582
1378.6	0.96265
1378.8	0.96712
1379.0	0.97138
1379.2	0.96105
1379.4	0.95082
1379.6	0.9407
1379.8	0.93069
1380.0	0.92151
1380.2	0.92983
1380.4	0.93822
1380.6	0.94668
1380.8	0.95522
1381.0	0.96364
1381.2	0.96218
1381.4	0.96073
1381.6	0.95928
1381.8	0.95784
1382.0	0.95641
1382.2	0.95738
1382.4	0.95836
1382.6	0.95934
1382.8	0.96032
1383.0	0.96126
1383.2	0.96107
1383.4	0.96088
1383.6	0.96069
1383.8	0.96051
1384.0	0.96033
1384.2	0.96104
1384.4	0.96174
1384.6	0.96245
1384.8	0.96316
1385.0	0.96387
1385.2	0.96472
1385.4	0.96556
1385.6	0.96641
1385.8	0.96726
1386.0	0.96806
1386.2	0.96686
1386.4	0.96565
1386.6	0.96445
1386.8	0.96325
1387.0	0.96207
1387.2	0.96211
1387.4	0.96215
1387.6	0.9622
1387.8	0.96224
1388.0	0.96233
1388.2	0.96333
1388.4	0.96434
1388.6	0.96534
1388.8	0.96635
1389.0	0.96732
1389.2	0.96715
1389.4	0.96697
1389.6	0.96679
1389.8	0.96662
1390.0	0.96644
1390.2	0.96648
1390.4	0.96651
1390.6	0.96654
1390.8	0.96657
1391.0	0.96654
1391.2	0.96505
1391.4	0.96356
1391.6	0.96207
1391.8	0.96059
1392.0	0.95924
1392.2	0.96171
1392.4	0.96418
1392.6	0.96665
1392.8	0.96914
1393.0	0.97165
1393.2	0.97506
1393.4	0.97848
1393.6	0.98192
1393.8	0.98536
1394.0	0.9886
1394.2	0.97748
1394.4	0.96649
1394.6	0.95562
1394.8	0.94487
1395.0	0.93481
1395.2	0.93669
1395.4	0.93858
1395.6	0.94046
1395.8	0.94236
1396.0	0.94443
1396.2	0.95061
1396.4	0.95684
1396.6	0.96311
1396.8	0.96941
1397.0	0.97558
1397.2	0.97576
1397.4	0.97595
1397.6	0.97613
1397.8	0.97632
1398.0	0.97643
1398.2	0.97286
1398.4	0.96931
1398.6	0.96577
1398.8	0.96225
1399.0	0.95883
1399.2	0.96515
1399.4	0.97151
1399.6	0.9779
1399.8	0.98435
1400.0	0.99036
1400.2	0.98635
1400.4	0.98237
1400.6	0.97839
1400.8	0.97444
1401.0	0.97077
1401.2	0.97368
1401.4	0.97659
1401.6	0.97952
1401.8	0.98245
1402.0	0.98528
1402.2	0.98545
1402.4	0.98563
1402.6	0.98581
1402.8	0.98598
1403.0	0.98618
1403.2	0.9868
1403.4	0.98742
1403.6	0.98804
1403.8	0.98867
1404.0	0.98924
1404.2	0.98851
1404.4	0.98777
1404.6	0.98703
1404.8	0.98629
1405.0	0.98558
1405.2	0.98554
1405.4	0.98549
1405.6	0.98545
1405.8	0.98541
1406.0	0.98539
1406.2	0.98608
1406.4	0.98677
1406.6	0.98747
1406.8	0.98816
1407.0	0.98881
1407.2	0.9879
1407.4	0.98699
1407.6	0.98609
1407.8	0.98518
1408.0	0.98435
1408.2	0.98628
1408.4	0.98823
1408.6	0.99017
1408.8	0.99212
1409.0	0.994
1409.2	0.99198
1409.4	0.98998
1409.6	0.98797
1409.8	0.98597
1410.0	0.98402
1410.2	0.98401
1410.4	0.984
1410.6	0.98399
1410.8	0.98399
1411.0	0.98398
1411.2	0.98402
1411.4	0.98405
1411.6	0.98408
1411.8	0.98412
1412.0	0.98417
1412.2	0.98465
1412.4	0.98513
1412.6	0.98562
1412.8	0.9861
1413.0	0.98653
1413.2	0.98499
1413.4	0.98345
1413.6	0.98192
1413.8	0.98039
1414.0	0.97896
1414.2	0.98032
1414.4	0.98168
1414.6	0.98304
1414.8	0.9844
1415.0	0.9857
1415.2	0.98548
1415.4	0.98527
1415.6	0.98505
1415.8	0.98483
1416.0	0.98462
1416.2	0.98451
1416.4	0.98441
1416.6	0.98431
1416.8	0.9842
1417.0	0.9841
1417.2	0.9836
1417.4	0.9831
1417.6	0.9826
1417.8	0.9821
1418.0	0.98163
1418.2	0.98344
1418.4	0.98526
1418.6	0.98708
1418.8	0.9889
1419.0	0.9907
1419.2	0.99038
1419.4	0.99007
1419.6	0.98976
1419.8	0.98944
1420.0	0.98915
1420.2	0.98979
1420.4	0.99042
1420.6	0.99105
1420.8	0.99169
1421.0	0.99228
1421.2	0.99174
1421.4	0.9912
1421.6	0.99066
1421.8	0.99012
1422.0	0.98958
1422.2	0.98901
1422.4	0.98844
1422.6	0.98787
1422.8	0.9873
1423.0	0.98675
1423.2	0.98762
1423.4	0.98849
1423.6	0.98937
1423.8	0.99024
1424.0	0.99109
1424.2	0.99119
1424.4	0.9913
1424.6	0.9914
1424.8	0.9915
1425.0	0.9916
1425.2	0.99168
1425.4	0.99175
1425.6	0.99182
1425.8	0.9919
1426.0	0.99197
1426.2	0.99168
1426.4	0.9914
1426.6	0.99112
1426.8	0.99083
1427.0	0.99055
1427.2	0.99057
1427.4	0.99059
1427.6	0.99061
1427.8	0.99063
1428.0	0.99062
1428.2	0.98982
1428.4	0.98902
1428.6	0.98822
1428.8	0.98743
1429.0	0.98668
1429.2	0.98708
1429.4	0.98748
1429.6	0.98788
1429.8	0.98828
1430.0	0.98867
1430.2	0.98888
1430.4	0.98908
1430.6	0.98928
1430.8	0.98948
1431.0	0.98973
1431.2	0.99154
1431.4	0.99335
1431.6	0.99516
1431.8	0.99698
1432.0	0.99876
1432.2	0.99619
1432.4	0.99362
1432.6	0.99106
1432.8	0.98851
1433.0	0.98604
1433.2	0.98648
1433.4	0.98692
1433.6	0.98736
1433.8	0.98779
1434.0	0.9882
1434.2	0.98786
1434.4	0.98752
1434.6	0.98718
1434.8	0.98685
1435.0	0.98652
1435.2	0.98654
1435.4	0.98657
1435.6	0.9866
1435.8	0.98662
1436.0	0.98661
1436.2	0.98556
1436.4	0.98451
1436.6	0.98346
1436.8	0.98242
1437.0	0.98139
1437.2	0.98271
1437.4	0.98403
1437.6	0.98535
1437.8	0.98667
1438.0	0.98798
1438.2	0.9888
1438.4	0.98961
1438.6	0.99043
1438.8	0.99125
1439.0	0.99207
1439.2	0.99159
1439.4	0.99111
1439.6	0.99064
1439.8	0.99016
1440.0	0.9897
1440.2	0.99013
1440.4	0.99055
1440.6	0.99097
1440.8	0.99139
1441.0	0.99181
1441.2	0.99134
1441.4	0.99088
1441.6	0.99041
1441.8	0.98995
1442.0	0.98951
1442.2	0.99005
1442.4	0.99058
1442.6	0.99112
1442.8	0.99165
1443.0	0.99219
1443.2	0.99222
1443.4	0.99225
1443.6	0.99228
1443.8	0.99231
1444.0	0.99235
1444.2	0.99267
1444.4	0.993
1444.6	0.99332
1444.8	0.99365
1445.0	0.99398
1445.2	0.99435
1445.4	0.99473
1445.6	0.99511
1445.8	0.99548
1446.0	0.99583
1446.2	0.9954
1446.4	0.99497
1446.6	0.99454
1446.8	0.99411
1447.0	0.99369
1447.2	0.99383
1447.4	0.99398
1447.6	0.99412
1447.8	0.99426
1448.0	0.9944
1448.2	0.99437
1448.4	0.99434
1448.6	0.99431
1448.8	0.99428
1449.0	0.99419
1449.2	0.99215
1449.4	0.99012
1449.6	0.98808
1449.8	0.98605
1450.0	0.98407
1450.2	0.98596
1450.4	0.98786
1450.6	0.98977
1450.8	0.99167
1451.0	0.9935
1451.2	0.99343
1451.4	0.99336
1451.6	0.99328
1451.8	0.99321
1452.0	0.99312
1452.2	0.99257
1452.4	0.99201
1452.6	0.99146
1452.8	0.99091
1453.0	0.99036
1453.2	0.99028
1453.4	0.99021
1453.6	0.99013
1453.8	0.99006
1454.0	0.98998
1454.2	0.98967
1454.4	0.98936
1454.6	0.98905
1454.8	0.98874
1455.0	0.98844
1455.2	0.98848
1455.4	0.98852
1455.6	0.98856
1455.8	0.9886
1456.0	0.98865
1456.2	0.98879
1456.4	0.98894
1456.6	0.98908
1456.8	0.98923
1457.0	0.98935
1457.2	0.98887
1457.4	0.9884
1457.6	0.98792
1457.8	0.98744
1458.0	0.98698
1458.2	0.98723
1458.4	0.98749
1458.6	0.98774
1458.8	0.988
1459.0	0.98823
1459.2	0.98809
1459.4	0.98795
1459.6	0.98781
1459.8	0.98767
1460.0	0.98754
1460.2	0.98791
1460.4	0.98828
1460.6	0.98866
1460.8	0.98903
1461.0	0.9894
1461.2	0.98946
1461.4	0.98953
1461.6	0.98959
1461.8	0.98965
1462.0	0.98971
1462.2	0.98972
1462.4	0.98972
1462.6	0.98972
1462.8	0.98972
1463.0	0.98973
1463.2	0.99005
1463.4	0.99036
1463.6	0.99067
1463.8	0.99099
1464.0	0.9913
1464.2	0.99153
1464.4	0.99175
1464.6	0.99198
1464.8	0.99221
1465.0	0.99244
1465.2	0.99264
1465.4	0.99285
1465.6	0.99305
1465.8	0.99326
1466.0	0.99346
1466.2	0.99356
1466.4	0.99365
1466.6	0.99375
1466.8	0.99385
1467.0	0.99395
1467.2	0.99422
1467.4	0.99449
1467.6	0.99476
1467.8	0.99503
1468.0	0.99529
1468.2	0.99498
1468.4	0.99468
1468.6	0.99437
1468.8	0.99406
1469.0	0.99378
1469.2	0.99428
1469.4	0.99478
1469.6	0.99528
1469.8	0.99578
1470.0	0.99627
1470.2	0.99629
1470.4	0.99631
1470.6	0.99633
1470.8	0.99635
1471.0	0.99636
1471.2	0.99628
1471.4	0.9962
1471.6	0.99611
1471.8	0.99603
1472.0	0.99595
1472.2	0.99593
1472.4	0.99591
1472.6	0.99589
1472.8	0.99587
1473.0	0.99585
1473.2	0.99572
1473.4	0.99559
1473.6	0.99547
1473.8	0.99534
1474.0	0.99521
1474.2	0.99501
1474.4	0.9948
1474.6	0.99459
1474.8	0.99438
1475.0	0.99418
1475.2	0.99412
1475.4	0.99407
1475.6	0.99402
1475.8	0.99396
1476.0	0.99389
1476.2	0.99335
1476.4	0.9928
1476.6	0.99225
1476.8	0.99171
1477.0	0.99117
1477.2	0.99135
1477.4	0.99153
1477.6	0.99171
1477.8	0.99189
1478.0	0.99207
1478.2	0.99212
1478.4	0.99217
1478.6	0.99222
1478.8	0.99227
1479.0	0.99231
1479.2	0.99197
1479.4	0.99163
1479.6	0.99129
1479.8	0.99095
1480.0	0.99061
1480.2	0.99027
1480.4	0.98993
1480.6	0.98959
1480.8	0.98925
1481.0	0.98892
1481.2	0.9892
1481.4	0.98948
1481.6	0.98976
1481.8	0.99004
1482.0	0.9903
1482.2	0.99004
1482.4	0.98978
1482.6	0.98951
1482.8	0.98925
1483.0	0.98901
1483.2	0.98938
1483.4	0.98975
1483.6	0.99013
1483.8	0.9905
1484.0	0.99086
1484.2	0.99057
1484.4	0.99027
1484.6	0.98998
1484.8	0.98969
1485.0	0.98942
1485.2	0.98975
1485.4	0.99009
1485.6	0.99042
1485.8	0.99075
1486.0	0.99106
1486.2	0.99061
1486.4	0.99015
1486.6	0.98969
1486.8	0.98924
1487.0	0.98879
1487.2	0.98932
1487.4	0.98984
1487.6	0.99036
1487.8	0.99089
1488.0	0.9914
1488.2	0.99163
1488.4	0.99185
1488.6	0.99208
1488.8	0.9923
1489.0	0.99252
1489.2	0.9924
1489.4	0.99229
1489.6	0.99217
1489.8	0.99206
1490.0	0.99195
1490.2	0.9921
1490.4	0.99226
1490.6	0.99241
1490.8	0.99257
1491.0	0.99272
1491.2	0.99286
1491.4	0.993
1491.6	0.99314
1491.8	0.99328
1492.0	0.99342
1492.2	0.99353
1492.4	0.99364
1492.6	0.99375
1492.8	0.99386
1493.0	0.99396
1493.2	0.99399
1493.4	0.99402
1493.6	0.99405
1493.8	0.99408
1494.0	0.99411
1494.2	0.99412
1494.4	0.99412
1494.6	0.99413
1494.8	0.99414
1495.0	0.99415
1495.2	0.99408
1495.4	0.99402
1495.6	0.99395
1495.8	0.99388
1496.0	0.99382
1496.2	0.99388
1496.4	0.99394
1496.6	0.99401
1496.8	0.99407
1497.0	0.99413
1497.2	0.99411
1497.4	0.99409
1497.6	0.99407
1497.8	0.99405
1498.0	0.99403
1498.2	0.99388
1498.4	0.99373
1498.6	0.99358
1498.8	0.99343
1499.0	0.99328
1499.2	0.99326
1499.4	0.99323
1499.6	0.99321
1499.8	0.99318
1500.0	0.99316
1500.2	0.99303
1500.4	0.9929
1500.6	0.99277
1500.8	0.99264
1501.0	0.99252
1501.2	0.99267
1501.4	0.99283
1501.6	0.99298
1501.8	0.99313
1502.0	0.99327
1502.2	0.99283
1502.4	0.99239
1502.6	0.99195
1502.8	0.99151
1503.0	0.99107
1503.2	0.99066
1503.4	0.99026
1503.6	0.98985
1503.8	0.98945
1504.0	0.98906
1504.2	0.9893
1504.4	0.98955
1504.6	0.98979
1504.8	0.99003
1505.0	0.99025
1505.2	0.98999
1505.4	0.98973
1505.6	0.98946
1505.8	0.9892
1506.0	0.98894
1506.2	0.98896
1506.4	0.98898
1506.6	0.98899
1506.8	0.98901
1507.0	0.98903
1507.2	0.98921
1507.4	0.98938
1507.6	0.98955
1507.8	0.98973
1508.0	0.98989
1508.2	0.98976
1508.4	0.98962
1508.6	0.98948
1508.8	0.98935
1509.0	0.98921
1509.2	0.98944
1509.4	0.98966
1509.6	0.98989
1509.8	0.99011
1510.0	0.99032
1510.2	0.9902
1510.4	0.99007
1510.6	0.98994
1510.8	0.98981
1511.0	0.98968
1511.2	0.98958
1511.4	0.98948
1511.6	0.98939
1511.8	0.98929
1512.0	0.98921
1512.2	0.98942
1512.4	0.98964
1512.6	0.98986
1512.8	0.99008
1513.0	0.99029
1513.2	0.99024
1513.4	0.99019
1513.6	0.99014
1513.8	0.99009
1514.0	0.99005
1514.2	0.99021
1514.4	0.99036
1514.6	0.99052
1514.8	0.99068
1515.0	0.99084
1515.2	0.99106
1515.4	0.99128
1515.6	0.9915
1515.8	0.99171
1516.0	0.99193
1516.2	0.99199
1516.4	0.99205
1516.6	0.99211
1516.8	0.99217
1517.0	0.99223
1517.2	0.99231
1517.4	0.99239
1517.6	0.99247
1517.8	0.99255
1518.0	0.99262
1518.2	0.99252
1518.4	0.99243
1518.6	0.99233
1518.8	0.99224
1519.0	0.99215
1519.2	0.99239
1519.4	0.99264
1519.6	0.99288
1519.8	0.99313
1520.0	0.99336
1520.2	0.99329
1520.4	0.99323
1520.6	0.99317
1520.8	0.99311
1521.0	0.99305
1521.2	0.99309
1521.4	0.99312
1521.6	0.99316
1521.8	0.99319
1522.0	0.99323
1522.2	0.99321
1522.4	0.99319
1522.6	0.99317
1522.8	0.99316
1523.0	0.99314
1523.2	0.99308
1523.4	0.99302
1523.6	0.99295
1523.8	0.99289
1524.0	0.99283
1524.2	0.99262
1524.4	0.99241
1524.6	0.99221
1524.8	0.992
1525.0	0.9918
1525.2	0.99187
1525.4	0.99194
1525.6	0.99201
1525.8	0.99207
1526.0	0.99213
1526.2	0.99205
1526.4	0.99197
1526.6	0.99189
1526.8	0.99181
1527.0	0.99173
1527.2	0.99157
1527.4	0.9914
1527.6	0.99124
1527.8	0.99108
1528.0	0.99092
1528.2	0.991
1528.4	0.99108
1528.6	0.99116
1528.8	0.99123
1529.0	0.9913
1529.2	0.99109
1529.4	0.99089
1529.6	0.99069
1529.8	0.99049
1530.0	0.99029
1530.2	0.99025
1530.4	0.9902
1530.6	0.99016
1530.8	0.99011
1531.0	0.99008
1531.2	0.99016
1531.4	0.99025
1531.6	0.99033
1531.8	0.99042
1532.0	0.9905
1532.2	0.99027
1532.4	0.99004
1532.6	0.98981
1532.8	0.98959
1533.0	0.98936
1533.2	0.98929
1533.4	0.98921
1533.6	0.98914
1533.8	0.98907
1534.0	0.989
1534.2	0.98926
1534.4	0.98951
1534.6	0.98976
1534.8	0.99002
1535.0	0.99026
1535.2	0.99018
1535.4	0.9901
1535.6	0.99002
1535.8	0.98995
1536.0	0.98987
1536.2	0.98984
1536.4	0.98981
1536.6	0.98978
1536.8	0.98975
1537.0	0.98972
1537.2	0.98981
1537.4	0.9899
1537.6	0.98999
1537.8	0.99008
1538.0	0.99016
1538.2	0.98998
1538.4	0.9898
1538.6	0.98962
1538.8	0.98944
1539.0	0.98926
1539.2	0.98934
1539.4	0.98942
1539.6	0.98949
1539.8	0.98957
1540.0	0.98965
1540.2	0.98962
1540.4	0.98959
1540.6	0.98956
1540.8	0.98953
1541.0	0.9895
1541.2	0.98933
1541.4	0.98915
1541.6	0.98898
1541.8	0.98881
1542.0	0.98865
1542.2	0.98897
1542.4	0.9893
1542.6	0.98962
1542.8	0.98994
1543.0	0.99024
1543.2	0.99
1543.4	0.98976
1543.6	0.98952
1543.8	0.98928
1544.0	0.98904
1544.2	0.98901
1544.4	0.98898
1544.6	0.98895
1544.8	0.98892
1545.0	0.98889
1545.2	0.98899
1545.4	0.9891
1545.6	0.9892
1545.8	0.9893
1546.0	0.98939
1546.2	0.98911
1546.4	0.98882
1546.6	0.98854
1546.8	0.98825
1547.0	0.98799
1547.2	0.9882
1547.4	0.9884
1547.6	0.98861
1547.8	0.98882
1548.0	0.98902
1548.2	0.98879
1548.4	0.98855
1548.6	0.98831
1548.8	0.98808
1549.0	0.98785
1549.2	0.98797
1549.4	0.98809
1549.6	0.98822
1549.8	0.98834
1550.0	0.98846
1550.2	0.98855
1550.4	0.98864
1550.6	0.98873
1550.8	0.98882
1551.0	0.9889
1551.2	0.98871
1551.4	0.98852
1551.6	0.98834
1551.8	0.98815
1552.0	0.98798
1552.2	0.98821
1552.4	0.98843
1552.6	0.98865
1552.8	0.98887
1553.0	0.98909
1553.2	0.98898
1553.4	0.98887
1553.6	0.98877
1553.8	0.98866
1554.0	0.98856
1554.2	0.98877
1554.4	0.98898
1554.6	0.98919
1554.8	0.9894
1555.0	0.9896
1555.2	0.98954
1555.4	0.98949
1555.6	0.98943
1555.8	0.98937
1556.0	0.98933
1556.2	0.98963
1556.4	0.98993
1556.6	0.99023
1556.8	0.99053
1557.0	0.99083
1557.2	0.99085
1557.4	0.99087
1557.6	0.99088
1557.8	0.9909
1558.0	0.99092
1558.2	0.99108
1558.4	0.99124
1558.6	0.99139
1558.8	0.99155
1559.0	0.9917
1559.2	0.99175
1559.4	0.9918
1559.6	0.99185
1559.8	0.99191
1560.0	0.99196
1560.2	0.99208
1560.4	0.9922
1560.6	0.99232
1560.8	0.99244
1561.0	0.99258
1561.2	0.99299
1561.4	0.99341
1561.6	0.99383
1561.8	0.99425
1562.0	0.99466
1562.2	0.99439
1562.4	0.99412
1562.6	0.99384
1562.8	0.99357
1563.0	0.99332
1563.2	0.99397
1563.4	0.99463
1563.6	0.99529
1563.8	0.99595
1564.0	0.99659
1564.2	0.99635
1564.4	0.99612
1564.6	0.99589
1564.8	0.99566
1565.0	0.99544
1565.2	0.99575
1565.4	0.99605
1565.6	0.99635
1565.8	0.99665
1566.0	0.99695
1566.2	0.99716
1566.4	0.99738
1566.6	0.9976
1566.8	0.99781
1567.0	0.99802
1567.2	0.99807
1567.4	0.99811
1567.6	0.99816
1567.8	0.9982
1568.0	0.99825
1568.2	0.99806
1568.4	0.99787
1568.6	0.99768
1568.8	0.99749
1569.0	0.99731
1569.2	0.99736
1569.4	0.99742
1569.6	0.99747
1569.8	0.99752
1570.0	0.99757
1570.2	0.99748
1570.4	0.9974
1570.6	0.99732
1570.8	0.99723
1571.0	0.99715
1571.2	0.99707
1571.4	0.99699
1571.6	0.99691
1571.8	0.99683
1572.0	0.99675
1572.2	0.99669
1572.4	0.99663
1572.6	0.99656
1572.8	0.9965
1573.0	0.99643
1573.2	0.99629
1573.4	0.99615
1573.6	0.996
1573.8	0.99586
1574.0	0.99572
1574.2	0.99559
1574.4	0.99546
1574.6	0.99533
1574.8	0.9952
1575.0	0.99506
1575.2	0.99486
1575.4	0.99465
1575.6	0.99444
1575.8	0.99423
1576.0	0.99402
1576.2	0.99404
1576.4	0.99406
1576.6	0.99408
1576.8	0.9941
1577.0	0.99411
1577.2	0.99377
1577.4	0.99342
1577.6	0.99307
1577.8	0.99273
1578.0	0.99239
1578.2	0.99243
1578.4	0.99247
1578.6	0.99251
1578.8	0.99255
1579.0	0.99257
1579.2	0.99211
1579.4	0.99166
1579.6	0.9912
1579.8	0.99074
1580.0	0.99029
1580.2	0.99049
1580.4	0.99068
1580.6	0.99087
1580.8	0.99107
1581.0	0.99125
1581.2	0.99086
1581.4	0.99046
1581.6	0.99007
1581.8	0.98968
1582.0	0.98931
1582.2	0.98948
1582.4	0.98964
1582.6	0.98981
1582.8	0.98997
1583.0	0.99012
1583.2	0.98984
1583.4	0.98956
1583.6	0.98928
1583.8	0.989
1584.0	0.98873
1584.2	0.98902
1584.4	0.98932
1584.6	0.98961
1584.8	0.98991
1585.0	0.99019
1585.2	0.9899
1585.4	0.98961
1585.6	0.98932
1585.8	0.98904
1586.0	0.98877
1586.2	0.98907
1586.4	0.98938
1586.6	0.98968
1586.8	0.98998
1587.0	0.99029
1587.2	0.99033
1587.4	0.99038
1587.6	0.99043
1587.8	0.99048
1588.0	0.99053
1588.2	0.99052
1588.4	0.99051
1588.6	0.99051
1588.8	0.9905
1589.0	0.9905
1589.2	0.99066
1589.4	0.99083
1589.6	0.991
1589.8	0.99117
1590.0	0.99133
1590.2	0.99137
1590.4	0.9914
1590.6	0.99144
1590.8	0.99147
1591.0	0.99151
1591.2	0.99173
1591.4	0.99194
1591.6	0.99216
1591.8	0.99237
1592.0	0.99258
1592.2	0.9926
1592.4	0.99262
1592.6	0.99264
1592.8	0.99267
1593.0	0.99269
1593.2	0.99301
1593.4	0.99333
1593.6	0.99365
1593.8	0.99397
1594.0	0.99428
1594.2	0.9939
1594.4	0.99352
1594.6	0.99314
1594.8	0.99276
1595.0	0.99241
1595.2	0.99278
1595.4	0.99316
1595.6	0.99353
1595.8	0.99391
1596.0	0.99428
1596.2	0.99416
1596.4	0.99403
1596.6	0.99391
1596.8	0.99379
1597.0	0.99367
1597.2	0.99389
1597.4	0.9941
1597.6	0.99431
1597.8	0.99452
1598.0	0.99471
1598.2	0.99463
1598.4	0.99455
1598.6	0.99447
1598.8	0.99438
1599.0	0.9943
1599.2	0.99425
1599.4	0.9942
1599.6	0.99414
1599.8	0.99409
1600.0	0.99404
1600.2	0.99403
1600.4	0.99402
1600.6	0.99401
1600.8	0.99399
1601.0	0.99398
1601.2	0.99366
1601.4	0.99334
1601.6	0.99302
1601.8	0.9927
1602.0	0.99239
1602.2	0.99257
1602.4	0.99275
1602.6	0.99293
1602.8	0.99311
1603.0	0.99328
1603.2	0.9929
1603.4	0.99253
1603.6	0.99215
1603.8	0.99178
1604.0	0.99141
1604.2	0.99145
1604.4	0.99149
1604.6	0.99153
1604.8	0.99157
1605.0	0.9916
1605.2	0.9915
1605.4	0.99139
1605.6	0.99129
1605.8	0.99119
1606.0	0.99108
1606.2	0.99072
1606.4	0.99036
1606.6	0.99
1606.8	0.98963
1607.0	0.9893
1607.2	0.98957
1607.4	0.98984
1607.6	0.99011
1607.8	0.99038
1608.0	0.99063
1608.2	0.9901
1608.4	0.98957
1608.6	0.98904
1608.8	0.98851
1609.0	0.98801
1609.2	0.98824
1609.4	0.98847
1609.6	0.9887
1609.8	0.98892
1610.0	0.98915
1610.2	0.98917
1610.4	0.98919
1610.6	0.98921
1610.8	0.98924
1611.0	0.98925
1611.2	0.98893
1611.4	0.98862
1611.6	0.9883
1611.8	0.98799
1612.0	0.98771
1612.2	0.98837
1612.4	0.98903
1612.6	0.98969
1612.8	0.99035
1613.0	0.99099
1613.2	0.9904
1613.4	0.9898
1613.6	0.9892
1613.8	0.9886
1614.0	0.98803
1614.2	0.9882
1614.4	0.98836
1614.6	0.98852
1614.8	0.98869
1615.0	0.98885
1615.2	0.98922
1615.4	0.98959
1615.6	0.98996
1615.8	0.99033
1616.0	0.99069
1616.2	0.99037
1616.4	0.99004
1616.6	0.98971
1616.8	0.98938
1617.0	0.98908
1617.2	0.98966
1617.4	0.99024
1617.6	0.99082
1617.8	0.9914
1618.0	0.99197
1618.2	0.99205
1618.4	0.99213
1618.6	0.99221
1618.8	0.99229
1619.0	0.99236
1619.2	0.99218
1619.4	0.99201
1619.6	0.99184
1619.8	0.99166
1620.0	0.9915
1620.2	0.99197
1620.4	0.99243
1620.6	0.9929
1620.8	0.99337
1621.0	0.99383
1621.2	0.99377
1621.4	0.99371
1621.6	0.99365
1621.8	0.99359
1622.0	0.99354
1622.2	0.99374
1622.4	0.99394
1622.6	0.99414
1622.8	0.99434
1623.0	0.99454
1623.2	0.99467
1623.4	0.99481
1623.6	0.99495
1623.8	0.99509
1624.0	0.99522
1624.2	0.99513
1624.4	0.99504
1624.6	0.99495
1624.8	0.99486
1625.0	0.99478
1625.2	0.99492
1625.4	0.99506
1625.6	0.99519
1625.8	0.99533
1626.0	0.99547
1626.2	0.99548
1626.4	0.99549
1626.6	0.9955
1626.8	0.99551
1627.0	0.99552
1627.2	0.99556
1627.4	0.99561
1627.6	0.99565
1627.8	0.99569
1628.0	0.99574
1628.2	0.99574
1628.4	0.99575
1628.6	0.99576
1628.8	0.99577
1629.0	0.99578
1629.2	0.99577
1629.4	0.99576
1629.6	0.99575
1629.8	0.99574
1630.0	0.99573
1630.2	0.99551
1630.4	0.99529
1630.6	0.99507
1630.8	0.99485
1631.0	0.99465
1631.2	0.99477
1631.4	0.99489
1631.6	0.99501
1631.8	0.99514
1632.0	0.99524
1632.2	0.99507
1632.4	0.99489
1632.6	0.99471
1632.8	0.99453
1633.0	0.99434
1633.2	0.99391
1633.4	0.99348
1633.6	0.99306
1633.8	0.99263
1634.0	0.99223
1634.2	0.9926
1634.4	0.99297
1634.6	0.99334
1634.8	0.99371
1635.0	0.99405
1635.2	0.9936
1635.4	0.99315
1635.6	0.9927
1635.8	0.99225
1636.0	0.99181
1636.2	0.99143
1636.4	0.99105
1636.6	0.99067
1636.8	0.99029
1637.0	0.98993
1637.2	0.99013
1637.4	0.99032
1637.6	0.99052
1637.8	0.99072
1638.0	0.99091
1638.2	0.99081
1638.4	0.99072
1638.6	0.99062
1638.8	0.99052
1639.0	0.99042
1639.2	0.99001
1639.4	0.98959
1639.6	0.98918
1639.8	0.98877
1640.0	0.98836
1640.2	0.98851
1640.4	0.98865
1640.6	0.98879
1640.8	0.98893
1641.0	0.98908
1641.2	0.98927
1641.4	0.98946
1641.6	0.98965
1641.8	0.98984
1642.0	0.99001
1642.2	0.98958
1642.4	0.98915
1642.6	0.98872
1642.8	0.98829
1643.0	0.98787
1643.2	0.98794
1643.4	0.98802
1643.6	0.98809
1643.8	0.98816
1644.0	0.98824
1644.2	0.98853
1644.4	0.98883
1644.6	0.98913
1644.8	0.98943
1645.0	0.98972
1645.2	0.98964
1645.4	0.98956
1645.6	0.98949
1645.8	0.98941
1646.0	0.98933
1646.2	0.98916
1646.4	0.98898
1646.6	0.98881
1646.8	0.98864
1647.0	0.9885
1647.2	0.9891
1647.4	0.9897
1647.6	0.99029
1647.8	0.99089
1648.0	0.99149
1648.2	0.99162
1648.4	0.99176
1648.6	0.9919
1648.8	0.99203
1649.0	0.99216
1649.2	0.99186
1649.4	0.99155
1649.6	0.99124
1649.8	0.99094
1650.0	0.99064
1650.2	0.99078
1650.4	0.99093
1650.6	0.99107
1650.8	0.99122
1651.0	0.99137
1651.2	0.99182
1651.4	0.99227
1651.6	0.99272
1651.8	0.99318
1652.0	0.99361
1652.2	0.99363
1652.4	0.99365
1652.6	0.99367
1652.8	0.99369
1653.0	0.99371
1653.2	0.99362
1653.4	0.99353
1653.6	0.99344
1653.8	0.99335
1654.0	0.99326
1654.2	0.99339
1654.4	0.99352
1654.6	0.99365
1654.8	0.99378
1655.0	0.99392
1655.2	0.99418
1655.4	0.99444
1655.6	0.9947
1655.8	0.99496
1656.0	0.9952
1656.2	0.99501
1656.4	0.99483
1656.6	0.99464
1656.8	0.99445
1657.0	0.99427
1657.2	0.9943
1657.4	0.99434
1657.6	0.99438
1657.8	0.99442
1658.0	0.99447
1658.2	0.99481
1658.4	0.99515
1658.6	0.99549
1658.8	0.99583
1659.0	0.99615
1659.2	0.99613
1659.4	0.99611
1659.6	0.99609
1659.8	0.99607
1660.0	0.99605
1660.2	0.99592
1660.4	0.9958
1660.6	0.99568
1660.8	0.99555
1661.0	0.99544
1661.2	0.99565
1661.4	0.99585
1661.6	0.99606
1661.8	0.99626
1662.0	0.99647
1662.2	0.99656
1662.4	0.99665
1662.6	0.99674
1662.8	0.99683
1663.0	0.99692
1663.2	0.99649
1663.4	0.99607
1663.6	0.99565
1663.8	0.99523
1664.0	0.99481
1664.2	0.99447
1664.4	0.99412
1664.6	0.99378
1664.8	0.99344
1665.0	0.9931
1665.2	0.99286
1665.4	0.99262
1665.6	0.99238
1665.8	0.99214
1666.0	0.99192
1666.2	0.99241
1666.4	0.99289
1666.6	0.99337
1666.8	0.99386
1667.0	0.99433
1667.2	0.99445
1667.4	0.99456
1667.6	0.99467
1667.8	0.99478
1668.0	0.99487
1668.2	0.99423
1668.4	0.99358
1668.6	0.99294
1668.8	0.9923
1669.0	0.99166
1669.2	0.99143
1669.4	0.99119
1669.6	0.99096
1669.8	0.99072
1670.0	0.9905
1670.2	0.99065
1670.4	0.9908
1670.6	0.99095
1670.8	0.9911
1671.0	0.99124
1671.2	0.99122
1671.4	0.99119
1671.6	0.99116
1671.8	0.99113
1672.0	0.9911
1672.2	0.99097
1672.4	0.99084
1672.6	0.9907
1672.8	0.99057
1673.0	0.99043
1673.2	0.99006
1673.4	0.98968
1673.6	0.98931
1673.8	0.98893
1674.0	0.98857
1674.2	0.98848
1674.4	0.9884
1674.6	0.98831
1674.8	0.98823
1675.0	0.98815
1675.2	0.98848
1675.4	0.98881
1675.6	0.98913
1675.8	0.98946
1676.0	0.98979
1676.2	0.99024
1676.4	0.9907
1676.6	0.99115
1676.8	0.9916
1677.0	0.99204
1677.2	0.99198
1677.4	0.99192
1677.6	0.99186
1677.8	0.9918
1678.0	0.99173
1678.2	0.99104
1678.4	0.99035
1678.6	0.98966
1678.8	0.98896
1679.0	0.9883
1679.2	0.98851
1679.4	0.98871
1679.6	0.98892
1679.8	0.98912
1680.0	0.98933
1680.2	0.9896
1680.4	0.98988
1680.6	0.99016
1680.8	0.99044
1681.0	0.99073
1681.2	0.99135
1681.4	0.99197
1681.6	0.9926
1681.8	0.99322
1682.0	0.99382
1682.2	0.99368
1682.4	0.99354
1682.6	0.9934
1682.8	0.99326
1683.0	0.99312
1683.2	0.99285
1683.4	0.99258
1683.6	0.99231
1683.8	0.99204
1684.0	0.99178
1684.2	0.9918
1684.4	0.99182
1684.6	0.99185
1684.8	0.99187
1685.0	0.99191
1685.2	0.99233
1685.4	0.99275
1685.6	0.99317
1685.8	0.99359
1686.0	0.99401
1686.2	0.99423
1686.4	0.99445
1686.6	0.99467
1686.8	0.99489
1687.0	0.99508
1687.2	0.99453
1687.4	0.99398
1687.6	0.99342
1687.8	0.99287
1688.0	0.99234
1688.2	0.99251
1688.4	0.99267
1688.6	0.99283
1688.8	0.99299
1689.0	0.99314
1689.2	0.99274
1689.4	0.99233
1689.6	0.99192
1689.8	0.99151
1690.0	0.99114
1690.2	0.99154
1690.4	0.99194
1690.6	0.99234
1690.8	0.99274
1691.0	0.99313
1691.2	0.99302
1691.4	0.99291
1691.6	0.99281
1691.8	0.9927
1692.0	0.9926
1692.2	0.99276
1692.4	0.99292
1692.6	0.99308
1692.8	0.99324
1693.0	0.99339
1693.2	0.99328
1693.4	0.99317
1693.6	0.99306
1693.8	0.99295
1694.0	0.99284
1694.2	0.99247
1694.4	0.9921
1694.6	0.99173
1694.8	0.99136
1695.0	0.99099
1695.2	0.99058
1695.4	0.99017
1695.6	0.98976
1695.8	0.98935
1696.0	0.98895
1696.2	0.98891
1696.4	0.98886
1696.6	0.98881
1696.8	0.98876
1697.0	0.98873
1697.2	0.98914
1697.4	0.98954
1697.6	0.98994
1697.8	0.99035
1698.0	0.99073
1698.2	0.99033
1698.4	0.98994
1698.6	0.98954
1698.8	0.98915
1699.0	0.98876
1699.2	0.9884
1699.4	0.98804
1699.6	0.98768
1699.8	0.98732
1700.0	0.98441
1700.2	0.98429
1700.4	0.98417
1700.6	0.984
1700.8	0.98379
1701.0	0.98357
1701.2	0.98356
1701.4	0.98355
1701.6	0.98352
1701.8	0.98348
1702.0	0.98343
1702.2	0.98335
1702.4	0.98327
1702.6	0.98321
1702.8	0.98315
1703.0	0.98309
1703.2	0.98306
1703.4	0.98302
1703.6	0.98299
1703.8	0.98295
1704.0	0.9829
1704.2	0.9829
1704.4	0.98289
1704.6	0.98288
1704.8	0.98287
1705.0	0.98286
1705.2	0.98285
1705.4	0.98283
1705.6	0.98283
1705.8	0.98283
1706.0	0.98284
1706.2	0.98287
1706.4	0.9829
1706.6	0.98289
1706.8	0.98284
1707.0	0.98279
1707.2	0.98294
1707.4	0.98308
1707.6	0.98304
1707.8	0.9828
1708.0	0.98256
1708.2	0.98276
1708.4	0.98295
1708.6	0.98312
1708.8	0.98328
1709.0	0.98343
1709.2	0.98368
1709.4	0.98394
1709.6	0.98415
1709.8	0.98432
1710.0	0.9845
1710.2	0.98441
1710.4	0.98432
1710.6	0.98431
1710.8	0.98441
1711.0	0.9845
1711.2	0.98462
1711.4	0.98475
1711.6	0.98485
1711.8	0.98491
1712.0	0.98497
1712.2	0.98511
1712.4	0.98524
1712.6	0.98541
1712.8	0.98561
1713.0	0.98582
1713.2	0.98586
1713.4	0.9859
1713.6	0.98597
1713.8	0.98607
1714.0	0.98617
1714.2	0.98633
1714.4	0.98649
1714.6	0.98665
1714.8	0.98682
1715.0	0.98699
1715.2	0.98713
1715.4	0.98727
1715.6	0.98739
1715.8	0.98749
1716.0	0.98759
1716.2	0.98772
1716.4	0.98785
1716.6	0.98801
1716.8	0.98818
1717.0	0.98836
1717.2	0.98862
1717.4	0.98888
1717.6	0.98903
1717.8	0.98907
1718.0	0.98911
1718.2	0.98916
1718.4	0.98921
1718.6	0.98932
1718.8	0.9895
1719.0	0.98967
1719.2	0.98969
1719.4	0.98972
1719.6	0.9898
1719.8	0.98994
1720.0	0.99009
1720.2	0.99016
1720.4	0.99024
1720.6	0.99029
1720.8	0.99029
1721.0	0.9903
1721.2	0.99039
1721.4	0.99048
1721.6	0.9906
1721.8	0.99074
1722.0	0.99088
1722.2	0.99092
1722.4	0.99097
1722.6	0.99096
1722.8	0.99088
1723.0	0.99081
1723.2	0.99093
1723.4	0.99104
1723.6	0.99112
1723.8	0.99114
1724.0	0.99117
1724.2	0.9912
1724.4	0.99122
1724.6	0.99122
1724.8	0.9912
1725.0	0.99117
1725.2	0.99117
1725.4	0.99117
1725.6	0.99122
1725.8	0.99131
1726.0	0.9914
1726.2	0.99142
1726.4	0.99143
1726.6	0.99136
1726.8	0.99121
1727.0	0.99105
1727.2	0.99108
1727.4	0.9911
1727.6	0.99105
1727.8	0.99092
1728.0	0.99079
1728.2	0.99074
1728.4	0.99069
1728.6	0.99068
1728.8	0.9907
1729.0	0.99072
1729.2	0.9906
1729.4	0.99049
1729.6	0.99037
1729.8	0.99024
1730.0	0.99011
1730.2	0.99006
1730.4	0.99
1730.6	0.98998
1730.8	0.98999
1731.0	0.99
1731.2	0.98995
1731.4	0.98991
1731.6	0.98982
1731.8	0.98968
1732.0	0.98954
1732.2	0.98941
1732.4	0.98929
1732.6	0.98923
1732.8	0.98922
1733.0	0.98922
1733.2	0.9891
1733.4	0.98898
1733.6	0.98885
1733.8	0.9887
1734.0	0.98854
1734.2	0.98855
1734.4	0.98855
1734.6	0.98854
1734.8	0.9885
1735.0	0.98846
1735.2	0.98844
1735.4	0.98843
1735.6	0.98843
1735.8	0.98844
1736.0	0.98846
1736.2	0.98843
1736.4	0.9884
1736.6	0.98839
1736.8	0.98838
1737.0	0.98838
1737.2	0.98835
1737.4	0.98833
1737.6	0.98828
1737.8	0.98818
1738.0	0.98809
1738.2	0.98808
1738.4	0.98807
1738.6	0.98803
1738.8	0.98796
1739.0	0.98789
1739.2	0.98807
1739.4	0.98825
1739.6	0.9883
1739.8	0.98823
1740.0	0.98816
1740.2	0.98817
1740.4	0.98818
1740.6	0.98817
1740.8	0.98815
1741.0	0.98812
1741.2	0.98811
1741.4	0.9881
1741.6	0.98806
1741.8	0.98799
1742.0	0.98792
1742.2	0.98801
1742.4	0.9881
1742.6	0.98819
1742.8	0.9883
1743.0	0.98841
1743.2	0.98851
1743.4	0.98862
1743.6	0.98869
1743.8	0.98872
1744.0	0.98875
1744.2	0.98871
1744.4	0.98868
1744.6	0.98871
1744.8	0.9888
1745.0	0.9889
1745.2	0.98897
1745.4	0.98905
1745.6	0.98911
1745.8	0.98915
1746.0	0.98919
1746.2	0.98929
1746.4	0.98938
1746.6	0.98944
1746.8	0.98945
1747.0	0.98947
1747.2	0.98955
1747.4	0.98963
1747.6	0.98974
1747.8	0.98988
1748.0	0.99003
1748.2	0.9901
1748.4	0.99017
1748.6	0.99021
1748.8	0.99021
1749.0	0.99022
1749.2	0.99031
1749.4	0.99039
1749.6	0.99045
1749.8	0.99048
1750.0	0.9905
1750.2	0.99051
1750.4	0.99052
1750.6	0.99061
1750.8	0.99076
1751.0	0.99092
1751.2	0.99092
1751.4	0.99091
1751.6	0.99094
1751.8	0.991
1752.0	0.99106
1752.2	0.99107
1752.4	0.99109
1752.6	0.99113
1752.8	0.99121
1753.0	0.99129
1753.2	0.99126
1753.4	0.99122
1753.6	0.99118
1753.8	0.99114
1754.0	0.9911
1754.2	0.99118
1754.4	0.99126
1754.6	0.99125
1754.8	0.99116
1755.0	0.99106
1755.2	0.99103
1755.4	0.99099
1755.6	0.99104
1755.8	0.99118
1756.0	0.99132
1756.2	0.99128
1756.4	0.99124
1756.6	0.99115
1756.8	0.99101
1757.0	0.99087
1757.2	0.99083
1757.4	0.99079
1757.6	0.99074
1757.8	0.99068
1758.0	0.99061
1758.2	0.99053
1758.4	0.99044
1758.6	0.99037
1758.8	0.9903
1759.0	0.99023
1759.2	0.99011
1759.4	0.98998
1759.6	0.98989
1759.8	0.98981
1760.0	0.98974
1760.2	0.98969
1760.4	0.98964
1760.6	0.98955
1760.8	0.98943
1761.0	0.9893
1761.2	0.98926
1761.4	0.98922
1761.6	0.98915
1761.8	0.98906
1762.0	0.98896
1762.2	0.98887
1762.4	0.98878
1762.6	0.98866
1762.8	0.98851
1763.0	0.98835
1763.2	0.98826
1763.4	0.98816
1763.6	0.98805
1763.8	0.98794
1764.0	0.98782
1764.2	0.98759
1764.4	0.98736
1764.6	0.98721
1764.8	0.98712
1765.0	0.98704
1765.2	0.98696
1765.4	0.98688
1765.6	0.98677
1765.8	0.98662
1766.0	0.98648
1766.2	0.98634
1766.4	0.9862
1766.6	0.98607
1766.8	0.98594
1767.0	0.98581
1767.2	0.98567
1767.4	0.98553
1767.6	0.9854
1767.8	0.98529
1768.0	0.98518
1768.2	0.98516
1768.4	0.98514
1768.6	0.98504
1768.8	0.98487
1769.0	0.98469
1769.2	0.98456
1769.4	0.98444
1769.6	0.98433
1769.8	0.98425
1770.0	0.98417
1770.2	0.98407
1770.4	0.98396
1770.6	0.98382
1770.8	0.98365
1771.0	0.98347
1771.2	0.98348
1771.4	0.98348
1771.6	0.9835
1771.8	0.98353
1772.0	0.98355
1772.2	0.98334
1772.4	0.98312
1772.6	0.98296
1772.8	0.98286
1773.0	0.98276
1773.2	0.9828
1773.4	0.98285
1773.6	0.98282
1773.8	0.98271
1774.0	0.9826
1774.2	0.98258
1774.4	0.98255
1774.6	0.98255
1774.8	0.98258
1775.0	0.98262
1775.2	0.98249
1775.4	0.98236
1775.6	0.98232
1775.8	0.98238
1776.0	0.98244
1776.2	0.98237
1776.4	0.9823
1776.6	0.98228
1776.8	0.98231
1777.0	0.98234
1777.2	0.98235
1777.4	0.98237
1777.6	0.98236
1777.8	0.98233
1778.0	0.9823
1778.2	0.9824
1778.4	0.9825
1778.6	0.98252
1778.8	0.98246
1779.0	0.9824
1779.2	0.98248
1779.4	0.98256
1779.6	0.9826
1779.8	0.9826
1780.0	0.98259
1780.2	0.98256
1780.4	0.98252
1780.6	0.98254
1780.8	0.98261
1781.0	0.98269
1781.2	0.98274
1781.4	0.98279
1781.6	0.98282
1781.8	0.98282
1782.0	0.98281
1782.2	0.98288
1782.4	0.98294
1782.6	0.98297
1782.8	0.98294
1783.0	0.98292
1783.2	0.98299
1783.4	0.98306
1783.6	0.98319
1783.8	0.98337
1784.0	0.98355
1784.2	0.98358
1784.4	0.9836
1784.6	0.98363
1784.8	0.98366
1785.0	0.98369
1785.2	0.98361
1785.4	0.98354
1785.6	0.98351
1785.8	0.98352
1786.0	0.98353
1786.2	0.98354
1786.4	0.98354
1786.6	0.98362
1786.8	0.98378
1787.0	0.98394
1787.2	0.98398
1787.4	0.98402
1787.6	0.98407
1787.8	0.98415
1788.0	0.98422
1788.2	0.98421
1788.4	0.98421
1788.6	0.98417
1788.8	0.98411
1789.0	0.98404
1789.2	0.98408
1789.4	0.98411
1789.6	0.98422
1789.8	0.98439
1790.0	0.98456
1790.2	0.98468
1790.4	0.98479
1790.6	0.98485
1790.8	0.98484
1791.0	0.98483
1791.2	0.98467
1791.4	0.98452
1791.6	0.9844
1791.8	0.98431
1792.0	0.98422
1792.2	0.98413
1792.4	0.98404
1792.6	0.984
1792.8	0.984
1793.0	0.984
1793.2	0.98406
1793.4	0.98412
1793.6	0.98415
1793.8	0.98414
1794.0	0.98414
1794.2	0.98409
1794.4	0.98404
1794.6	0.98401
1794.8	0.98401
1795.0	0.98401
1795.2	0.98406
1795.4	0.98411
1795.6	0.98413
1795.8	0.98412
1796.0	0.9841
1796.2	0.984
1796.4	0.98389
1796.6	0.98379
1796.8	0.98369
1797.0	0.98359
1797.2	0.98362
1797.4	0.98365
1797.6	0.9836
1797.8	0.98346
1798.0	0.98332
1798.2	0.98326
1798.4	0.98319
1798.6	0.98314
1798.8	0.98308
1799.0	0.98303
1799.2	0.98285
1799.4	0.98267
1799.6	0.98267
1799.8	0.98286
1800.0	0.98305
1800.2	0.98293
1800.4	0.98281
1800.6	0.98282
1800.8	0.98295
1801.0	0.98308
1801.2	0.98295
1801.4	0.98282
1801.6	0.98268
1801.8	0.98253
1802.0	0.98239
1802.2	0.98242
1802.4	0.98246
1802.6	0.98244
1802.8	0.98238
1803.0	0.98232
1803.2	0.98232
1803.4	0.98233
1803.6	0.98233
1803.8	0.98233
1804.0	0.98232
1804.2	0.98234
1804.4	0.98237
1804.6	0.98237
1804.8	0.98236
1805.0	0.98234
1805.2	0.98233
1805.4	0.98232
1805.6	0.98231
1805.8	0.9823
1806.0	0.98229
1806.2	0.98224
1806.4	0.98219
1806.6	0.98221
1806.8	0.98229
1807.0	0.98238
1807.2	0.98239
1807.4	0.9824
1807.6	0.98241
1807.8	0.98244
1808.0	0.98246
1808.2	0.9824
1808.4	0.98234
1808.6	0.98236
1808.8	0.98248
1809.0	0.9826
1809.2	0.98272
1809.4	0.98283
1809.6	0.9829
1809.8	0.98293
1810.0	0.98295
1810.2	0.98315
1810.4	0.98335
1810.6	0.98339
1810.8	0.98327
1811.0	0.98315
1811.2	0.98317
1811.4	0.98319
1811.6	0.98335
1811.8	0.98365
1812.0	0.98395
1812.2	0.98394
1812.4	0.98394
1812.6	0.984
1812.8	0.98414
1813.0	0.98428
1813.2	0.98437
1813.4	0.98447
1813.6	0.98451
1813.8	0.98451
1814.0	0.98451
1814.2	0.98458
1814.4	0.98466
1814.6	0.98477
1814.8	0.98492
1815.0	0.98506
1815.2	0.98516
1815.4	0.98525
1815.6	0.98534
1815.8	0.98542
1816.0	0.9855
1816.2	0.98559
1816.4	0.98568
1816.6	0.98575
1816.8	0.98582
1817.0	0.98589
1817.2	0.98573
1817.4	0.98557
1817.6	0.98573
1817.8	0.98621
1818.0	0.98669
1818.2	0.98671
1818.4	0.98673
1818.6	0.98679
1818.8	0.98687
1819.0	0.98696
1819.2	0.98714
1819.4	0.98732
1819.6	0.98744
1819.8	0.98751
1820.0	0.98757
1820.2	0.98771
1820.4	0.98786
1820.6	0.98787
1820.8	0.98776
1821.0	0.98765
1821.2	0.98787
1821.4	0.9881
1821.6	0.98827
1821.8	0.98838
1822.0	0.98849
1822.2	0.98855
1822.4	0.98861
1822.6	0.98868
1822.8	0.98878
1823.0	0.98887
1823.2	0.98883
1823.4	0.98878
1823.6	0.98881
1823.8	0.98891
1824.0	0.98901
1824.2	0.98899
1824.4	0.98897
1824.6	0.98882
1824.8	0.98855
1825.0	0.98828
1825.2	0.98849
1825.4	0.9887
1825.6	0.98888
1825.8	0.98902
1826.0	0.98917
1826.2	0.98913
1826.4	0.9891
1826.6	0.98906
1826.8	0.98901
1827.0	0.98897
1827.2	0.98896
1827.4	0.98896
1827.6	0.98898
1827.8	0.98903
1828.0	0.98908
1828.2	0.98913
1828.4	0.98918
1828.6	0.98919
1828.8	0.98915
1829.0	0.98912
1829.2	0.98904
1829.4	0.98897
1829.6	0.98892
1829.8	0.98889
1830.0	0.98886
1830.2	0.98882
1830.4	0.98878
1830.6	0.98873
1830.8	0.98868
1831.0	0.98862
1831.2	0.9886
1831.4	0.98857
1831.6	0.98848
1831.8	0.98833
1832.0	0.98817
1832.2	0.98816
1832.4	0.98815
1832.6	0.98814
1832.8	0.98815
1833.0	0.98816
1833.2	0.98805
1833.4	0.98794
1833.6	0.98782
1833.8	0.98771
1834.0	0.98759
1834.2	0.98764
1834.4	0.98768
1834.6	0.98762
1834.8	0.98745
1835.0	0.98728
1835.2	0.9873
1835.4	0.98731
1835.6	0.98729
1835.8	0.98721
1836.0	0.98714
1836.2	0.98689
1836.4	0.98665
1836.6	0.98648
1836.8	0.98639
1837.0	0.9863
1837.2	0.98623
1837.4	0.98617
1837.6	0.9861
1837.8	0.98601
1838.0	0.98592
1838.2	0.98588
1838.4	0.98583
1838.6	0.98579
1838.8	0.98576
1839.0	0.98573
1839.2	0.98555
1839.4	0.98537
1839.6	0.98521
1839.8	0.98508
1840.0	0.98496
1840.2	0.98484
1840.4	0.98472
1840.6	0.98458
1840.8	0.98443
1841.0	0.98427
1841.2	0.98419
1841.4	0.9841
1841.6	0.98396
1841.8	0.98375
1842.0	0.98354
1842.2	0.98353
1842.4	0.98352
1842.6	0.98355
1842.8	0.98362
1843.0	0.98369
1843.2	0.98355
1843.4	0.9834
1843.6	0.98329
1843.8	0.98321
1844.0	0.98312
1844.2	0.98326
1844.4	0.98339
1844.6	0.9834
1844.8	0.98327
1845.0	0.98314
1845.2	0.9831
1845.4	0.98307
1845.6	0.98297
1845.8	0.98282
1846.0	0.98266
1846.2	0.98272
1846.4	0.98277
1846.6	0.98276
1846.8	0.98267
1847.0	0.98258
1847.2	0.98251
1847.4	0.98243
1847.6	0.9824
1847.8	0.98242
1848.0	0.98244
1848.2	0.98245
1848.4	0.98246
1848.6	0.98245
1848.8	0.98242
1849.0	0.98239
1849.2	0.98239
1849.4	0.9824
1849.6	0.98243
1849.8	0.98249
1850.0	0.98254
1850.2	0.98251
1850.4	0.98247
1850.6	0.98245
1850.8	0.98246
1851.0	0.98246
1851.2	0.98242
1851.4	0.98238
1851.6	0.9824
1851.8	0.98249
1852.0	0.98258
1852.2	0.98263
1852.4	0.98267
1852.6	0.9827
1852.8	0.98269
1853.0	0.98269
1853.2	0.98275
1853.4	0.98281
1853.6	0.98285
1853.8	0.98287
1854.0	0.98289
1854.2	0.98301
1854.4	0.98312
1854.6	0.98326
1854.8	0.98343
1855.0	0.98361
1855.2	0.98345
1855.4	0.98328
1855.6	0.98325
1855.8	0.98333
1856.0	0.98341
1856.2	0.9835
1856.4	0.98359
1856.6	0.98362
1856.8	0.98357
1857.0	0.98352
1857.2	0.98345
1857.4	0.98339
1857.6	0.98336
1857.8	0.98336
1858.0	0.98336
1858.2	0.98359
1858.4	0.98381
1858.6	0.98396
1858.8	0.98404
1859.0	0.98411
1859.2	0.98417
1859.4	0.98423
1859.6	0.98426
1859.8	0.98425
1860.0	0.98424
1860.2	0.9843
1860.4	0.98436
1860.6	0.98443
1860.8	0.98449
1861.0	0.98456
1861.2	0.9846
1861.4	0.98464
1861.6	0.98469
1861.8	0.98475
1862.0	0.98481
1862.2	0.98477
1862.4	0.98472
1862.6	0.98471
1862.8	0.98474
1863.0	0.98477
1863.2	0.98486
1863.4	0.98495
1863.6	0.985
1863.8	0.98501
1864.0	0.98502
1864.2	0.98499
1864.4	0.98497
1864.6	0.98497
1864.8	0.985
1865.0	0.98503
1865.2	0.98524
1865.4	0.98545
1865.6	0.98552
1865.8	0.98545
1866.0	0.98538
1866.2	0.98517
1866.4	0.98496
1866.6	0.98482
1866.8	0.98473
1867.0	0.98465
1867.2	0.98508
1867.4	0.98552
1867.6	0.98559
1867.8	0.9853
1868.0	0.98501
1868.2	0.98497
1868.4	0.98494
1868.6	0.98501
1868.8	0.98519
1869.0	0.98538
1869.2	0.98503
1869.4	0.98469
1869.6	0.98455
1869.8	0.98462
1870.0	0.98468
1870.2	0.98449
1870.4	0.98429
1870.6	0.98419
1870.8	0.9842
1871.0	0.9842
1871.2	0.98434
1871.4	0.98447
1871.6	0.98452
1871.8	0.98449
1872.0	0.98446
1872.2	0.98437
1872.4	0.98428
1872.6	0.98419
1872.8	0.98409
1873.0	0.984
1873.2	0.98391
1873.4	0.98382
1873.6	0.98382
1873.8	0.98391
1874.0	0.984
1874.2	0.98403
1874.4	0.98407
1874.6	0.98406
1874.8	0.98401
1875.0	0.98396
1875.2	0.9839
1875.4	0.98384
1875.6	0.98382
1875.8	0.98383
1876.0	0.98385
1876.2	0.9839
1876.4	0.98394
1876.6	0.98398
1876.8	0.98402
1877.0	0.98406
1877.2	0.98394
1877.4	0.98381
1877.6	0.98372
1877.8	0.98366
1878.0	0.9836
1878.2	0.98368
1878.4	0.98376
1878.6	0.98375
1878.8	0.98366
1879.0	0.98356
1879.2	0.98358
1879.4	0.98359
1879.6	0.98358
1879.8	0.98356
1880.0	0.98354
1880.2	0.98351
1880.4	0.98349
1880.6	0.98346
1880.8	0.98343
1881.0	0.98339
1881.2	0.98335
1881.4	0.98331
1881.6	0.98331
1881.8	0.98333
1882.0	0.98335
1882.2	0.9834
1882.4	0.98346
1882.6	0.98354
1882.8	0.98364
1883.0	0.98374
1883.2	0.98376
1883.4	0.98378
1883.6	0.98375
1883.8	0.98365
1884.0	0.98355
1884.2	0.98364
1884.4	0.98373
1884.6	0.98377
1884.8	0.98375
1885.0	0.98373
1885.2	0.9838
1885.4	0.98387
1885.6	0.98392
1885.8	0.98397
1886.0	0.98401
1886.2	0.98397
1886.4	0.98393
1886.6	0.98395
1886.8	0.98404
1887.0	0.98412
1887.2	0.98415
1887.4	0.98418
1887.6	0.9843
1887.8	0.9845
1888.0	0.9847
1888.2	0.98472
1888.4	0.98474
1888.6	0.98483
1888.8	0.98498
1889.0	0.98513
1889.2	0.98519
1889.4	0.98525
1889.6	0.98529
1889.8	0.98531
1890.0	0.98534
1890.2	0.98548
1890.4	0.98563
1890.6	0.98566
1890.8	0.98559
1891.0	0.98552
1891.2	0.98568
1891.4	0.98584
1891.6	0.98597
1891.8	0.98608
1892.0	0.98618
1892.2	0.9862
1892.4	0.98621
1892.6	0.98626
1892.8	0.98635
1893.0	0.98644
1893.2	0.98654
1893.4	0.98664
1893.6	0.98676
1893.8	0.9869
1894.0	0.98704
1894.2	0.98708
1894.4	0.98711
1894.6	0.98708
1894.8	0.98698
1895.0	0.98688
1895.2	0.98719
1895.4	0.9875
1895.6	0.98772
1895.8	0.98786
1896.0	0.98799
1896.2	0.98771
1896.4	0.98742
1896.6	0.98731
1896.8	0.98736
1897.0	0.98742
1897.2	0.98755
1897.4	0.98768
1897.6	0.98783
1897.8	0.98801
1898.0	0.98818
1898.2	0.98857
1898.4	0.98895
1898.6	0.98896
1898.8	0.9886
1899.0	0.98825
1899.2	0.98833
1899.4	0.98842
1899.6	0.98851
1899.8	0.9886
1900.0	0.9887
1900.2	0.98861
1900.4	0.98851
1900.6	0.98865
1900.8	0.989
1901.0	0.98936
1901.2	0.989
1901.4	0.98863
1901.6	0.98856
1901.8	0.98877
1902.0	0.98898
1902.2	0.9891
1902.4	0.98921
1902.6	0.98931
1902.8	0.98939
1903.0	0.98948
1903.2	0.98946
1903.4	0.98945
1903.6	0.98947
1903.8	0.98954
1904.0	0.9896
1904.2	0.98948
1904.4	0.98936
1904.6	0.98928
1904.8	0.98923
1905.0	0.98918
1905.2	0.98897
1905.4	0.98877
1905.6	0.98868
1905.8	0.9887
1906.0	0.98872
1906.2	0.9887
1906.4	0.98867
1906.6	0.98871
1906.8	0.98882
1907.0	0.98892
1907.2	0.9889
1907.4	0.98888
1907.6	0.98881
1907.8	0.98867
1908.0	0.98854
1908.2	0.98861
1908.4	0.98867
1908.6	0.98862
1908.8	0.98845
1909.0	0.98828
1909.2	0.98823
1909.4	0.98817
1909.6	0.98823
1909.8	0.9884
1910.0	0.98857
1910.2	0.98823
1910.4	0.98789
1910.6	0.98774
1910.8	0.98779
1911.0	0.98783
1911.2	0.98796
1911.4	0.98809
1911.6	0.98804
1911.8	0.98782
1912.0	0.98759
1912.2	0.98749
1912.4	0.98739
1912.6	0.98728
1912.8	0.98717
1913.0	0.98705
1913.2	0.987
1913.4	0.98694
1913.6	0.98689
1913.8	0.98685
1914.0	0.98681
1914.2	0.98666
1914.4	0.98651
1914.6	0.98637
1914.8	0.98624
1915.0	0.98612
1915.2	0.98602
1915.4	0.98592
1915.6	0.98583
1915.8	0.98575
1916.0	0.98567
1916.2	0.98564
1916.4	0.98562
1916.6	0.98553
1916.8	0.98539
1917.0	0.98525
1917.2	0.98518
1917.4	0.98512
1917.6	0.9851
1917.8	0.98512
1918.0	0.98514
1918.2	0.98532
1918.4	0.9855
1918.6	0.98546
1918.8	0.98519
1919.0	0.98492
1919.2	0.98465
1919.4	0.98437
1919.6	0.98429
1919.8	0.98439
1920.0	0.98449
1920.2	0.98436
1920.4	0.98423
1920.6	0.98412
1920.8	0.98402
1921.0	0.98392
1921.2	0.98397
1921.4	0.98402
1921.6	0.98401
1921.8	0.98391
1922.0	0.98382
1922.2	0.98378
1922.4	0.98374
1922.6	0.98363
1922.8	0.98346
1923.0	0.98328
1923.2	0.98306
1923.4	0.98283
1923.6	0.98285
1923.8	0.9831
1924.0	0.98334
1924.2	0.98332
1924.4	0.9833
1924.6	0.98332
1924.8	0.98337
1925.0	0.98342
1925.2	0.98335
1925.4	0.98329
1925.6	0.98326
1925.8	0.98329
1926.0	0.98331
1926.2	0.98331
1926.4	0.98331
1926.6	0.98329
1926.8	0.98325
1927.0	0.9832
1927.2	0.98327
1927.4	0.98333
1927.6	0.98337
1927.8	0.98339
1928.0	0.9834
1928.2	0.9834
1928.4	0.9834
1928.6	0.98336
1928.8	0.98326
1929.0	0.98317
1929.2	0.98299
1929.4	0.98281
1929.6	0.98286
1929.8	0.98313
1930.0	0.9834
1930.2	0.9835
1930.4	0.9836
1930.6	0.98358
1930.8	0.98343
1931.0	0.98328
1931.2	0.98353
1931.4	0.98378
1931.6	0.98396
1931.8	0.98406
1932.0	0.98415
1932.2	0.98416
1932.4	0.98416
1932.6	0.9842
1932.8	0.98427
1933.0	0.98434
1933.2	0.98438
1933.4	0.98442
1933.6	0.98444
1933.8	0.98445
1934.0	0.98446
1934.2	0.9846
1934.4	0.98474
1934.6	0.98475
1934.8	0.98463
1935.0	0.98451
1935.2	0.9846
1935.4	0.98468
1935.6	0.98471
1935.8	0.98468
1936.0	0.98466
1936.2	0.98493
1936.4	0.98519
1936.6	0.98536
1936.8	0.98542
1937.0	0.98549
1937.2	0.98548
1937.4	0.98548
1937.6	0.98543
1937.8	0.98534
1938.0	0.98526
1938.2	0.98528
1938.4	0.98531
1938.6	0.98541
1938.8	0.9856
1939.0	0.98579
1939.2	0.98583
1939.4	0.98587
1939.6	0.98584
1939.8	0.98575
1940.0	0.98566
1940.2	0.98574
1940.4	0.98582
1940.6	0.98586
1940.8	0.98583
1941.0	0.98581
1941.2	0.98607
1941.4	0.98633
1941.6	0.98653
1941.8	0.98668
1942.0	0.98682
1942.2	0.98678
1942.4	0.98675
1942.6	0.98676
1942.8	0.98682
1943.0	0.98688
1943.2	0.98694
1943.4	0.987
1943.6	0.98685
1943.8	0.98648
1944.0	0.98612
1944.2	0.98644
1944.4	0.98675
1944.6	0.98695
1944.8	0.98704
1945.0	0.98712
1945.2	0.98711
1945.4	0.9871
1945.6	0.98704
1945.8	0.98694
1946.0	0.98683
1946.2	0.98671
1946.4	0.98659
1946.6	0.98662
1946.8	0.9868
1947.0	0.98698
1947.2	0.98691
1947.4	0.98684
1947.6	0.98674
1947.8	0.98662
1948.0	0.9865
1948.2	0.98645
1948.4	0.98639
1948.6	0.98643
1948.8	0.98655
1949.0	0.98667
1949.2	0.98674
1949.4	0.9868
1949.6	0.98681
1949.8	0.98676
1950.0	0.98671
1950.2	0.9866
1950.4	0.98648
1950.6	0.98641
1950.8	0.98638
1951.0	0.98635
1951.2	0.98632
1951.4	0.98629
1951.6	0.98621
1951.8	0.9861
1952.0	0.98598
1952.2	0.98577
1952.4	0.98555
1952.6	0.98551
1952.8	0.98562
1953.0	0.98574
1953.2	0.98578
1953.4	0.98581
1953.6	0.98588
1953.8	0.98599
1954.0	0.98609
1954.2	0.98592
1954.4	0.98574
1954.6	0.98563
1954.8	0.98556
1955.0	0.9855
1955.2	0.9852
1955.4	0.9849
1955.6	0.98484
1955.8	0.98502
1956.0	0.9852
1956.2	0.98518
1956.4	0.98516
1956.6	0.98512
1956.8	0.98507
1957.0	0.98501
1957.2	0.98495
1957.4	0.98488
1957.6	0.98474
1957.8	0.98454
1958.0	0.98434
1958.2	0.98418
1958.4	0.98402
1958.6	0.98403
1958.8	0.98419
1959.0	0.98435
1959.2	0.98439
1959.4	0.98443
1959.6	0.98447
1959.8	0.9845
1960.0	0.98454
1960.2	0.98442
1960.4	0.98429
1960.6	0.98419
1960.8	0.9841
1961.0	0.98401
1961.2	0.98387
1961.4	0.98373
1961.6	0.98369
1961.8	0.98374
1962.0	0.9838
1962.2	0.98388
1962.4	0.98396
1962.6	0.98398
1962.8	0.98394
1963.0	0.9839
1963.2	0.98387
1963.4	0.98384
1963.6	0.98372
1963.8	0.98352
1964.0	0.98332
1964.2	0.98317
1964.4	0.98301
1964.6	0.983
1964.8	0.98314
1965.0	0.98327
1965.2	0.98334
1965.4	0.98341
1965.6	0.98351
1965.8	0.98364
1966.0	0.98376
1966.2	0.98381
1966.4	0.98385
1966.6	0.98385
1966.8	0.9838
1967.0	0.98375
1967.2	0.98385
1967.4	0.98396
1967.6	0.98398
1967.8	0.98392
1968.0	0.98386
1968.2	0.98383
1968.4	0.98379
1968.6	0.98382
1968.8	0.98392
1969.0	0.98402
1969.2	0.98412
1969.4	0.98421
1969.6	0.98427
1969.8	0.98428
1970.0	0.98429
1970.2	0.9843
1970.4	0.98431
1970.6	0.98432
1970.8	0.98434
1971.0	0.98436
1971.2	0.98439
1971.4	0.98442
1971.6	0.98446
1971.8	0.98452
1972.0	0.98459
1972.2	0.9847
1972.4	0.98481
1972.6	0.98492
1972.8	0.98503
1973.0	0.98515
1973.2	0.98526
1973.4	0.98538
1973.6	0.98547
1973.8	0.98555
1974.0	0.98562
1974.2	0.98566
1974.4	0.9857
1974.6	0.98577
1974.8	0.98585
1975.0	0.98594
1975.2	0.98602
1975.4	0.98611
1975.6	0.9862
1975.8	0.9863
1976.0	0.98639
1976.2	0.98649
1976.4	0.98659
1976.6	0.98665
1976.8	0.98666
1977.0	0.98667
1977.2	0.98682
1977.4	0.98697
1977.6	0.98704
1977.8	0.98704
1978.0	0.98704
1978.2	0.98715
1978.4	0.98726
1978.6	0.98737
1978.8	0.98747
1979.0	0.98757
1979.2	0.98759
1979.4	0.98762
1979.6	0.98767
1979.8	0.98774
1980.0	0.98781
1980.2	0.9879
1980.4	0.98798
1980.6	0.98804
1980.8	0.98807
1981.0	0.9881
1981.2	0.98818
1981.4	0.98827
1981.6	0.98837
1981.8	0.98847
1982.0	0.98858
1982.2	0.98853
1982.4	0.98849
1982.6	0.98849
1982.8	0.98855
1983.0	0.98861
1983.2	0.9887
1983.4	0.98879
1983.6	0.98883
1983.8	0.98882
1984.0	0.9888
1984.2	0.98892
1984.4	0.98903
1984.6	0.98911
1984.8	0.98914
1985.0	0.98918
1985.2	0.98918
1985.4	0.98917
1985.6	0.98918
1985.8	0.9892
1986.0	0.98922
1986.2	0.98923
1986.4	0.98924
1986.6	0.98927
1986.8	0.98932
1987.0	0.98936
1987.2	0.98932
1987.4	0.98927
1987.6	0.98926
1987.8	0.98928
1988.0	0.9893
1988.2	0.9894
1988.4	0.9895
1988.6	0.98955
1988.8	0.98954
1989.0	0.98953
1989.2	0.98942
1989.4	0.98932
1989.6	0.98924
1989.8	0.98918
1990.0	0.98913
1990.2	0.98912
1990.4	0.9891
1990.6	0.9891
1990.8	0.98912
1991.0	0.98914
1991.2	0.98922
1991.4	0.9893
1991.6	0.98934
1991.8	0.98935
1992.0	0.98936
1992.2	0.98939
1992.4	0.98943
1992.6	0.98938
1992.8	0.98925
1993.0	0.98913
1993.2	0.98907
1993.4	0.98901
1993.6	0.98896
1993.8	0.98894
1994.0	0.98891
1994.2	0.98881
1994.4	0.98871
1994.6	0.98859
1994.8	0.98845
1995.0	0.98831
1995.2	0.98816
1995.4	0.98801
1995.6	0.98783
1995.8	0.98762
1996.0	0.98741
1996.2	0.98751
1996.4	0.98761
1996.6	0.98768
1996.8	0.98773
1997.0	0.98778
1997.2	0.98772
1997.4	0.98765
1997.6	0.98759
1997.8	0.98754
1998.0	0.98748
1998.2	0.98744
1998.4	0.98739
1998.6	0.98734
1998.8	0.98727
1999.0	0.98721
1999.2	0.98715
1999.4	0.98709
1999.6	0.987
1999.8	0.98687
2000.0	0.98674
