Typical Measured Spectrum of Semrock FF01-750/SP Optical Filter	
For wavelengths between 320 and 1120 nm, values near or below 3e-7 (Optical Density 6.5) are measurement noise limited.
For wavelengths < 320 nm and > 1120 nm, values near or below 3e-6 (Optical Density 5.5) are measurement noise limited. 
Data format:  Wavelength (nm) <tab> Transmission (0 to 1)
300.0	2.3105e-06
300.2	2.3902e-06
300.4	2.4727e-06
300.6	2.558e-06
300.8	2.6462e-06
301.0	2.7375e-06
301.2	2.832e-06
301.4	2.9297e-06
301.6	3.0308e-06
301.8	3.1354e-06
302.0	2.8505e-06
302.2	2.5898e-06
302.4	2.353e-06
302.6	2.1379e-06
302.8	1.9424e-06
303.0	1.7648e-06
303.2	1.6034e-06
303.4	1.4568e-06
303.6	1.3236e-06
303.8	1.2025e-06
304.0	1.0607e-06
304.2	9.2809e-07
304.4	8.1204e-07
304.6	7.105e-07
304.8	6.2166e-07
305.0	5.4393e-07
305.2	4.7592e-07
305.4	4.1641e-07
305.6	3.6434e-07
305.8	3.1878e-07
306.0	3.5134e-07
306.2	4.5927e-07
306.4	6.0035e-07
306.6	7.8476e-07
306.8	1.0258e-06
307.0	1.3409e-06
307.2	1.7528e-06
307.4	2.2913e-06
307.6	2.9951e-06
307.8	3.9151e-06
308.0	4.7462e-06
308.2	5.0605e-06
308.4	5.3957e-06
308.6	5.753e-06
308.8	6.1341e-06
309.0	6.5403e-06
309.2	6.9735e-06
309.4	7.4353e-06
309.6	7.9278e-06
309.8	8.4528e-06
310.0	4.3468e-06
310.2	4.4666e-06
310.4	4.5897e-06
310.6	4.7162e-06
310.8	4.8462e-06
311.0	4.9797e-06
311.2	5.117e-06
311.4	5.258e-06
311.6	5.4029e-06
311.8	5.5518e-06
312.0	5.8852e-06
312.2	6.2435e-06
312.4	6.6237e-06
312.6	7.027e-06
312.8	7.4549e-06
313.0	7.9089e-06
313.2	8.3905e-06
313.4	8.9014e-06
313.6	9.4434e-06
313.8	1.0018e-05
314.0	1.3628e-05
314.2	2.0008e-05
314.4	2.9375e-05
314.6	4.3127e-05
314.8	6.3318e-05
315.0	9.2961e-05
315.2	1.3648e-04
315.4	2.0038e-04
315.6	2.9419e-04
315.8	4.3193e-04
316.0	5.2687e-04
316.2	5.5723e-04
316.4	5.8934e-04
316.6	6.2329e-04
316.8	6.5921e-04
317.0	6.9719e-04
317.2	7.3736e-04
317.4	7.7985e-04
317.6	8.2478e-04
317.8	8.723e-04
318.0	8.0387e-04
318.2	5.8297e-04
318.4	4.2277e-04
318.6	3.066e-04
318.8	2.2235e-04
319.0	1.6125e-04
319.2	1.1694e-04
319.4	8.4804e-05
319.6	6.15e-05
319.8	4.46e-05
320.0	9.3168e-06
320.2	9.0882e-06
320.4	8.8653e-06
320.6	8.6479e-06
320.8	8.4358e-06
321.0	8.2288e-06
321.2	8.027e-06
321.4	7.8301e-06
321.6	7.638e-06
321.8	7.4507e-06
322.0	7.2102e-06
322.2	6.9764e-06
322.4	6.7501e-06
322.6	6.5312e-06
322.8	6.3193e-06
323.0	6.1144e-06
323.2	5.916e-06
323.4	5.7242e-06
323.6	5.5385e-06
323.8	5.3589e-06
324.0	5.7027e-06
324.2	6.2336e-06
324.4	6.8139e-06
324.6	7.4483e-06
324.8	8.1418e-06
325.0	8.8998e-06
325.2	9.7284e-06
325.4	1.0634e-05
325.6	1.1624e-05
325.8	1.2706e-05
326.0	1.5812e-05
326.2	2.1614e-05
326.4	2.9544e-05
326.6	4.0385e-05
326.8	5.5203e-05
327.0	7.5458e-05
327.2	1.0315e-04
327.4	1.4099e-04
327.6	1.9273e-04
327.8	2.6344e-04
328.0	3.2289e-04
328.2	3.3246e-04
328.4	3.4232e-04
328.6	3.5247e-04
328.8	3.6292e-04
329.0	3.7368e-04
329.2	3.8476e-04
329.4	3.9616e-04
329.6	4.0791e-04
329.8	4.2e-04
330.0	3.1288e-04
330.2	3.2263e-04
330.4	2.9807e-04
330.6	3.0168e-04
330.8	3.0072e-04
331.0	3.0721e-04
331.2	3.2085e-04
331.4	3.3425e-04
331.6	3.9814e-04
331.8	4.4716e-04
332.0	5.2039e-04
332.2	5.9641e-04
332.4	7.4219e-04
332.6	8.1076e-04
332.8	0.00106
333.0	0.00141
333.2	0.00212
333.4	0.00375
333.6	0.0094
333.8	0.03381
334.0	0.09482
334.2	0.13464
334.4	0.12075
334.6	0.088
334.8	0.05877
335.0	0.04313
335.2	0.03936
335.4	0.04873
335.6	0.0846
335.8	0.17891
336.0	0.22052
336.2	0.14232
336.4	0.08404
336.6	0.06861
336.8	0.07523
337.0	0.0816
337.2	0.06237
337.4	0.03592
337.6	0.02112
337.8	0.01579
338.0	0.01526
338.2	0.02182
338.4	0.04013
338.6	0.04347
338.8	0.02072
339.0	0.00774
339.2	0.00388
339.4	0.00279
339.6	0.00235
339.8	0.00247
340.0	0.00336
340.2	0.00362
340.4	0.00206
340.6	0.00107
340.8	6.775e-04
341.0	5.0504e-04
341.2	4.3431e-04
341.4	4.1062e-04
341.6	3.7726e-04
341.8	3.858e-04
342.0	4.1652e-04
342.2	5.0508e-04
342.4	7.5494e-04
342.6	8.729e-04
342.8	5.8946e-04
343.0	3.7357e-04
343.2	2.8356e-04
343.4	2.0888e-04
343.6	1.5355e-04
343.8	1.407e-04
344.0	1.1969e-04
344.2	1.1574e-04
344.4	1.2734e-04
344.6	1.9126e-04
344.8	3.966e-04
345.0	8.6588e-04
345.2	7.0692e-04
345.4	3.2207e-04
345.6	1.8505e-04
345.8	1.3541e-04
346.0	1.2213e-04
346.2	1.2695e-04
346.4	1.5967e-04
346.6	2.4447e-04
346.8	5.3879e-04
347.0	0.00258
347.2	0.00583
347.4	0.00279
347.6	0.00101
347.8	6.9033e-04
348.0	7.2717e-04
348.2	0.00114
348.4	0.00298
348.6	0.01486
348.8	0.04698
349.0	0.02258
349.2	0.00304
349.4	9.8462e-04
349.6	6.0139e-04
349.8	4.5024e-04
350.0	2.1872e-04
350.2	1.9071e-04
350.4	1.6628e-04
350.6	1.4498e-04
350.8	1.2641e-04
351.0	1.1022e-04
351.2	9.6102e-05
351.4	8.3793e-05
351.6	7.306e-05
351.8	6.3702e-05
352.0	6.2907e-05
352.2	6.2706e-05
352.4	6.2505e-05
352.6	6.2306e-05
352.8	6.2107e-05
353.0	6.1909e-05
353.2	6.1711e-05
353.4	6.1514e-05
353.6	6.1317e-05
353.8	6.1122e-05
354.0	6.0433e-05
354.2	5.9585e-05
354.4	5.8749e-05
354.6	5.7926e-05
354.8	5.7113e-05
355.0	5.6312e-05
355.2	5.5523e-05
355.4	5.4744e-05
355.6	5.3976e-05
355.8	5.3219e-05
356.0	5.3329e-05
356.2	5.411e-05
356.4	5.4901e-05
356.6	5.5704e-05
356.8	5.6519e-05
357.0	5.7346e-05
357.2	5.8185e-05
357.4	5.9037e-05
357.6	5.99e-05
357.8	6.0777e-05
358.0	6.1574e-05
358.2	6.2235e-05
358.4	6.2904e-05
358.6	6.358e-05
358.8	6.4263e-05
359.0	6.4953e-05
359.2	6.5651e-05
359.4	6.6356e-05
359.6	6.7069e-05
359.8	6.7789e-05
360.0	6.8414e-05
360.2	6.7791e-05
360.4	6.7174e-05
360.6	6.6562e-05
360.8	6.5956e-05
361.0	6.5356e-05
361.2	6.4761e-05
361.4	6.4171e-05
361.6	6.3587e-05
361.8	6.3008e-05
362.0	6.4046e-05
362.2	6.5206e-05
362.4	6.6388e-05
362.6	6.7591e-05
362.8	6.8816e-05
363.0	7.0063e-05
363.2	7.1333e-05
363.4	7.2626e-05
363.6	7.3942e-05
363.8	7.5282e-05
364.0	7.6189e-05
364.2	7.6965e-05
364.4	7.775e-05
364.6	7.8542e-05
364.8	7.9342e-05
365.0	8.0151e-05
365.2	8.0968e-05
365.4	8.1793e-05
365.6	8.2626e-05
365.8	8.3468e-05
366.0	8.9561e-05
366.2	1.0021e-04
366.4	1.1213e-04
366.6	1.2546e-04
366.8	1.4039e-04
367.0	1.5708e-04
367.2	1.7576e-04
367.4	1.9666e-04
367.6	2.2005e-04
367.8	2.4622e-04
368.0	2.8819e-04
368.2	3.5942e-04
368.4	4.4826e-04
368.6	5.5905e-04
368.8	6.9723e-04
369.0	8.6955e-04
369.2	0.00108
369.4	0.00135
369.6	0.00169
369.8	0.0021
370.0	0.00135
370.2	0.00132
370.4	0.00134
370.6	0.00136
370.8	0.00134
371.0	0.00137
371.2	0.00148
371.4	0.00147
371.6	0.00142
371.8	0.00152
372.0	0.00153
372.2	0.00148
372.4	0.00149
372.6	0.00157
372.8	0.00155
373.0	0.00158
373.2	0.00164
373.4	0.00172
373.6	0.00195
373.8	0.00217
374.0	0.00236
374.2	0.00262
374.4	0.00283
374.6	0.00308
374.8	0.00342
375.0	0.00373
375.2	0.00397
375.4	0.00432
375.6	0.00479
375.8	0.00523
376.0	0.00598
376.2	0.00706
376.4	0.00894
376.6	0.01262
376.8	0.02122
377.0	0.04483
377.2	0.11524
377.4	0.29236
377.6	0.56619
377.8	0.76973
378.0	0.84019
378.2	0.85897
378.4	0.87023
378.6	0.87509
378.8	0.87855
379.0	0.88114
379.2	0.8834
379.4	0.88904
379.6	0.89307
379.8	0.89671
380.0	0.89935
380.2	0.90268
380.4	0.90447
380.6	0.90477
380.8	0.90588
381.0	0.90499
381.2	0.90562
381.4	0.90713
381.6	0.91096
381.8	0.91607
382.0	0.91978
382.2	0.9224
382.4	0.9216
382.6	0.91731
382.8	0.91399
383.0	0.91075
383.2	0.90844
383.4	0.90991
383.6	0.91258
383.8	0.91886
384.0	0.92376
384.2	0.92795
384.4	0.92927
384.6	0.92739
384.8	0.92601
385.0	0.92468
385.2	0.92345
385.4	0.92376
385.6	0.92676
385.8	0.93078
386.0	0.93282
386.2	0.93412
386.4	0.93282
386.6	0.93109
386.8	0.9272
387.0	0.92515
387.2	0.924
387.4	0.92313
387.6	0.92602
387.8	0.93065
388.0	0.93574
388.2	0.93849
388.4	0.94031
388.6	0.93901
388.8	0.93695
389.0	0.93191
389.2	0.92808
389.4	0.9237
389.6	0.92315
389.8	0.92248
390.0	0.92643
390.2	0.93018
390.4	0.93369
390.6	0.93789
390.8	0.93862
391.0	0.93948
391.2	0.93869
391.4	0.93827
391.6	0.93538
391.8	0.93546
392.0	0.93643
392.2	0.93921
392.4	0.94211
392.6	0.94401
392.8	0.94724
393.0	0.94576
393.2	0.94433
393.4	0.9399
393.6	0.93507
393.8	0.93026
394.0	0.92692
394.2	0.92417
394.4	0.92556
394.6	0.92699
394.8	0.9316
395.0	0.93633
395.2	0.93958
395.4	0.94437
395.6	0.94449
395.8	0.94649
396.0	0.94527
396.2	0.94234
396.4	0.94054
396.6	0.93939
396.8	0.93893
397.0	0.93877
397.2	0.9403
397.4	0.94349
397.6	0.94487
397.8	0.94657
398.0	0.94674
398.2	0.94582
398.4	0.94543
398.6	0.94088
398.8	0.94034
399.0	0.93989
399.2	0.93901
399.4	0.94019
399.6	0.94322
399.8	0.94748
400.0	0.95094
400.2	0.95517
400.4	0.95708
400.6	0.95881
400.8	0.9555
401.0	0.95337
401.2	0.95242
401.4	0.94828
401.6	0.94525
401.8	0.94482
402.0	0.94487
402.2	0.94531
402.4	0.94749
402.6	0.95044
402.8	0.9527
403.0	0.95385
403.2	0.95396
403.4	0.95346
403.6	0.9525
403.8	0.94974
404.0	0.94762
404.2	0.94677
404.4	0.94509
404.6	0.94545
404.8	0.94685
405.0	0.94913
405.2	0.95245
405.4	0.95595
405.6	0.9579
405.8	0.9595
406.0	0.95925
406.2	0.95917
406.4	0.95674
406.6	0.95494
406.8	0.95124
407.0	0.94886
407.2	0.94719
407.4	0.94724
407.6	0.94767
407.8	0.95018
408.0	0.9518
408.2	0.95479
408.4	0.95641
408.6	0.95753
408.8	0.95841
409.0	0.95661
409.2	0.95522
409.4	0.95367
409.6	0.9515
409.8	0.95023
410.0	0.9505
410.2	0.9502
410.4	0.95157
410.6	0.95309
410.8	0.95472
411.0	0.95596
411.2	0.95632
411.4	0.95931
411.6	0.96101
411.8	0.96039
412.0	0.96008
412.2	0.95948
412.4	0.95916
412.6	0.9584
412.8	0.95914
413.0	0.95999
413.2	0.96034
413.4	0.96211
413.6	0.96351
413.8	0.96471
414.0	0.96525
414.2	0.96542
414.4	0.96441
414.6	0.96264
414.8	0.95963
415.0	0.95578
415.2	0.95157
415.4	0.94765
415.6	0.94423
415.8	0.94082
416.0	0.93637
416.2	0.93234
416.4	0.92874
416.6	0.92431
416.8	0.92132
417.0	0.91656
417.2	0.91302
417.4	0.90871
417.6	0.90407
417.8	0.90135
418.0	0.89838
418.2	0.89579
418.4	0.895
418.6	0.89486
418.8	0.89572
419.0	0.89963
419.2	0.90396
419.4	0.90701
419.6	0.91338
419.8	0.91799
420.0	0.92452
420.2	0.92966
420.4	0.93465
420.6	0.93987
420.8	0.94409
421.0	0.94914
421.2	0.95356
421.4	0.95765
421.6	0.96116
421.8	0.96424
422.0	0.96816
422.2	0.96949
422.4	0.97241
422.6	0.97394
422.8	0.97346
423.0	0.97289
423.2	0.97065
423.4	0.96828
423.6	0.96538
423.8	0.96209
424.0	0.95827
424.2	0.95607
424.4	0.95423
424.6	0.95227
424.8	0.95267
425.0	0.95327
425.2	0.95272
425.4	0.95483
425.6	0.95692
425.8	0.95854
426.0	0.96101
426.2	0.96225
426.4	0.96369
426.6	0.96546
426.8	0.96528
427.0	0.96708
427.2	0.96781
427.4	0.96698
427.6	0.96677
427.8	0.96788
428.0	0.96815
428.2	0.96739
428.4	0.96648
428.6	0.96732
428.8	0.96565
429.0	0.96365
429.2	0.96221
429.4	0.96059
429.6	0.95818
429.8	0.95591
430.0	0.95295
430.2	0.9509
430.4	0.94946
430.6	0.94841
430.8	0.94717
431.0	0.94824
431.2	0.94936
431.4	0.95017
431.6	0.95352
431.8	0.95771
432.0	0.95932
432.2	0.96275
432.4	0.96503
432.6	0.96654
432.8	0.96805
433.0	0.96948
433.2	0.96989
433.4	0.97035
433.6	0.97036
433.8	0.9685
434.0	0.96831
434.2	0.96812
434.4	0.96778
434.6	0.96878
434.8	0.96853
435.0	0.96895
435.2	0.96861
435.4	0.96906
435.6	0.97067
435.8	0.97131
436.0	0.97146
436.2	0.97093
436.4	0.97102
436.6	0.97172
436.8	0.97221
437.0	0.97186
437.2	0.97299
437.4	0.97442
437.6	0.97516
437.8	0.97641
438.0	0.97805
438.2	0.97909
438.4	0.98055
438.6	0.98018
438.8	0.9808
439.0	0.97971
439.2	0.97774
439.4	0.97599
439.6	0.97347
439.8	0.97113
440.0	0.96841
440.2	0.96544
440.4	0.96271
440.6	0.96181
440.8	0.96007
441.0	0.95951
441.2	0.95944
441.4	0.96088
441.6	0.9622
441.8	0.96389
442.0	0.96637
442.2	0.96782
442.4	0.9699
442.6	0.97173
442.8	0.97335
443.0	0.97346
443.2	0.97555
443.4	0.9768
443.6	0.97679
443.8	0.97838
444.0	0.97874
444.2	0.97846
444.4	0.97963
444.6	0.98019
444.8	0.98105
445.0	0.98049
445.2	0.98092
445.4	0.97979
445.6	0.97938
445.8	0.97812
446.0	0.97709
446.2	0.97491
446.4	0.97254
446.6	0.972
446.8	0.9696
447.0	0.96831
447.2	0.96793
447.4	0.96695
447.6	0.96759
447.8	0.96799
448.0	0.96924
448.2	0.97142
448.4	0.97331
448.6	0.97597
448.8	0.97814
449.0	0.97915
449.2	0.98045
449.4	0.98186
449.6	0.98223
449.8	0.98179
450.0	0.98068
450.2	0.97971
450.4	0.97842
450.6	0.97628
450.8	0.97503
451.0	0.97409
451.2	0.97338
451.4	0.97289
451.6	0.97352
451.8	0.97345
452.0	0.97403
452.2	0.97511
452.4	0.97592
452.6	0.97716
452.8	0.978
453.0	0.97891
453.2	0.97841
453.4	0.97914
453.6	0.97861
453.8	0.97832
454.0	0.97809
454.2	0.97745
454.4	0.97814
454.6	0.9777
454.8	0.97736
455.0	0.97766
455.2	0.97829
455.4	0.97886
455.6	0.9786
455.8	0.97905
456.0	0.97946
456.2	0.97835
456.4	0.97902
456.6	0.97746
456.8	0.97613
457.0	0.97415
457.2	0.97327
457.4	0.97108
457.6	0.96837
457.8	0.96683
458.0	0.9655
458.2	0.96484
458.4	0.96542
458.6	0.9645
458.8	0.96532
459.0	0.96649
459.2	0.96867
459.4	0.97091
459.6	0.97335
459.8	0.97701
460.0	0.97891
460.2	0.98189
460.4	0.98437
460.6	0.98603
460.8	0.98743
461.0	0.9888
461.2	0.99052
461.4	0.99204
461.6	0.99157
461.8	0.99215
462.0	0.99151
462.2	0.99211
462.4	0.99118
462.6	0.99039
462.8	0.99045
463.0	0.98938
463.2	0.98883
463.4	0.9874
463.6	0.98686
463.8	0.98483
464.0	0.98365
464.2	0.98221
464.4	0.9796
464.6	0.97781
464.8	0.97559
465.0	0.97422
465.2	0.97266
465.4	0.97174
465.6	0.97041
465.8	0.97031
466.0	0.97083
466.2	0.97055
466.4	0.97207
466.6	0.97322
466.8	0.97489
467.0	0.97582
467.2	0.97751
467.4	0.97794
467.6	0.9781
467.8	0.97916
468.0	0.97828
468.2	0.97717
468.4	0.97615
468.6	0.97421
468.8	0.97166
469.0	0.97016
469.2	0.96828
469.4	0.96645
469.6	0.9649
469.8	0.96413
470.0	0.96426
470.2	0.96414
470.4	0.96581
470.6	0.96732
470.8	0.96943
471.0	0.97142
471.2	0.97321
471.4	0.97501
471.6	0.9781
471.8	0.97945
472.0	0.98169
472.2	0.98366
472.4	0.98367
472.6	0.98458
472.8	0.98521
473.0	0.98537
473.2	0.98564
473.4	0.98539
473.6	0.98528
473.8	0.9853
474.0	0.98559
474.2	0.98607
474.4	0.98593
474.6	0.98656
474.8	0.98735
475.0	0.98784
475.2	0.98807
475.4	0.98811
475.6	0.98803
475.8	0.98696
476.0	0.98646
476.2	0.98492
476.4	0.98287
476.6	0.98016
476.8	0.97801
477.0	0.97655
477.2	0.97458
477.4	0.97229
477.6	0.97131
477.8	0.97092
478.0	0.97024
478.2	0.97026
478.4	0.97067
478.6	0.97151
478.8	0.97403
479.0	0.97609
479.2	0.97713
479.4	0.97916
479.6	0.98111
479.8	0.98149
480.0	0.98284
480.2	0.98365
480.4	0.98358
480.6	0.98296
480.8	0.98233
481.0	0.98038
481.2	0.97921
481.4	0.97812
481.6	0.97652
481.8	0.97503
482.0	0.97404
482.2	0.97286
482.4	0.97304
482.6	0.97292
482.8	0.97282
483.0	0.97344
483.2	0.9747
483.4	0.97581
483.6	0.97691
483.8	0.97806
484.0	0.97918
484.2	0.97908
484.4	0.9806
484.6	0.98028
484.8	0.98011
485.0	0.97928
485.2	0.97835
485.4	0.97846
485.6	0.9781
485.8	0.9769
486.0	0.97723
486.2	0.97749
486.4	0.97771
486.6	0.979
486.8	0.98016
487.0	0.98074
487.2	0.98238
487.4	0.98345
487.6	0.98535
487.8	0.98648
488.0	0.98702
488.2	0.98749
488.4	0.98705
488.6	0.9866
488.8	0.98583
489.0	0.98402
489.2	0.98172
489.4	0.98006
489.6	0.9776
489.8	0.97521
490.0	0.97339
490.2	0.97157
490.4	0.9693
490.6	0.96923
490.8	0.96848
491.0	0.96876
491.2	0.96974
491.4	0.97115
491.6	0.9728
491.8	0.97493
492.0	0.9769
492.2	0.97921
492.4	0.98175
492.6	0.98359
492.8	0.98546
493.0	0.98662
493.2	0.98722
493.4	0.9871
493.6	0.98627
493.8	0.98481
494.0	0.98365
494.2	0.98217
494.4	0.98032
494.6	0.97848
494.8	0.97665
495.0	0.97565
495.2	0.97463
495.4	0.97395
495.6	0.97356
495.8	0.97335
496.0	0.97435
496.2	0.97503
496.4	0.97617
496.6	0.97806
496.8	0.97925
497.0	0.9799
497.2	0.98034
497.4	0.98124
497.6	0.98126
497.8	0.98195
498.0	0.98117
498.2	0.98124
498.4	0.9808
498.6	0.97972
498.8	0.97946
499.0	0.97949
499.2	0.97867
499.4	0.97873
499.6	0.97969
499.8	0.98038
500.0	0.98106
500.2	0.98345
500.4	0.98488
500.6	0.98702
500.8	0.98927
501.0	0.99163
501.2	0.99297
501.4	0.99442
501.6	0.99536
501.8	0.99571
502.0	0.99534
502.2	0.99441
502.4	0.9931
502.6	0.99096
502.8	0.98796
503.0	0.98465
503.2	0.98226
503.4	0.97868
503.6	0.97613
503.8	0.97381
504.0	0.97138
504.2	0.97008
504.4	0.96864
504.6	0.96773
504.8	0.96829
505.0	0.96931
505.2	0.9713
505.4	0.97273
505.6	0.97488
505.8	0.97687
506.0	0.97925
506.2	0.98083
506.4	0.98212
506.6	0.98314
506.8	0.98388
507.0	0.98322
507.2	0.98244
507.4	0.98192
507.6	0.98036
507.8	0.97833
508.0	0.97727
508.2	0.97544
508.4	0.97466
508.6	0.97298
508.8	0.97245
509.0	0.97267
509.2	0.97342
509.4	0.97422
509.6	0.9763
509.8	0.978
510.0	0.98068
510.2	0.98259
510.4	0.98526
510.6	0.98713
510.8	0.9899
511.0	0.99192
511.2	0.99358
511.4	0.99428
511.6	0.99444
511.8	0.99401
512.0	0.99296
512.2	0.99089
512.4	0.989
512.6	0.98582
512.8	0.98374
513.0	0.98027
513.2	0.97864
513.4	0.97636
513.6	0.97466
513.8	0.97317
514.0	0.97281
514.2	0.97271
514.4	0.97394
514.6	0.97566
514.8	0.97698
515.0	0.97994
515.2	0.98271
515.4	0.98546
515.6	0.98791
515.8	0.98998
516.0	0.99135
516.2	0.99207
516.4	0.99263
516.6	0.99141
516.8	0.99051
517.0	0.98785
517.2	0.98466
517.4	0.9812
517.6	0.97741
517.8	0.97287
518.0	0.96815
518.2	0.96347
518.4	0.95939
518.6	0.95659
518.8	0.95343
519.0	0.95199
519.2	0.95047
519.4	0.95022
519.6	0.95104
519.8	0.95189
520.0	0.95393
520.2	0.95667
520.4	0.95995
520.6	0.96365
520.8	0.96755
521.0	0.97168
521.2	0.9757
521.4	0.97888
521.6	0.98253
521.8	0.98508
522.0	0.98708
522.2	0.98821
522.4	0.98927
522.6	0.98976
522.8	0.98872
523.0	0.9883
523.2	0.98707
523.4	0.98592
523.6	0.98422
523.8	0.98236
524.0	0.98092
524.2	0.97928
524.4	0.97867
524.6	0.97801
524.8	0.97799
525.0	0.97835
525.2	0.97884
525.4	0.98006
525.6	0.98114
525.8	0.98267
526.0	0.98422
526.2	0.98559
526.4	0.98745
526.6	0.98821
526.8	0.98947
527.0	0.99031
527.2	0.991
527.4	0.99143
527.6	0.99138
527.8	0.99127
528.0	0.99083
528.2	0.99076
528.4	0.99081
528.6	0.99008
528.8	0.98921
529.0	0.98881
529.2	0.98846
529.4	0.98816
529.6	0.98844
529.8	0.98839
530.0	0.98848
530.2	0.98899
530.4	0.98927
530.6	0.98969
530.8	0.99014
531.0	0.99061
531.2	0.99085
531.4	0.99087
531.6	0.99058
531.8	0.99039
532.0	0.98951
532.2	0.98916
532.4	0.98794
532.6	0.98686
532.8	0.98582
533.0	0.9847
533.2	0.9835
533.4	0.98186
533.6	0.9802
533.8	0.97913
534.0	0.97806
534.2	0.97701
534.4	0.97693
534.6	0.97677
534.8	0.97665
535.0	0.9771
535.2	0.978
535.4	0.97891
535.6	0.97986
535.8	0.9814
536.0	0.9823
536.2	0.98372
536.4	0.98496
536.6	0.98603
536.8	0.98698
537.0	0.98762
537.2	0.98805
537.4	0.98864
537.6	0.98883
537.8	0.98839
538.0	0.98802
538.2	0.98764
538.4	0.98697
538.6	0.98616
538.8	0.98614
539.0	0.98586
539.2	0.98496
539.4	0.98482
539.6	0.98467
539.8	0.98482
540.0	0.98497
540.2	0.98556
540.4	0.98642
540.6	0.98701
540.8	0.98823
541.0	0.98942
541.2	0.99022
541.4	0.99089
541.6	0.99229
541.8	0.99276
542.0	0.9936
542.2	0.99419
542.4	0.99408
542.6	0.99369
542.8	0.9937
543.0	0.99316
543.2	0.99211
543.4	0.9911
543.6	0.98996
543.8	0.98899
544.0	0.98796
544.2	0.98681
544.4	0.98578
544.6	0.9852
544.8	0.9841
545.0	0.98346
545.2	0.98335
545.4	0.98358
545.6	0.98429
545.8	0.98435
546.0	0.98555
546.2	0.98622
546.4	0.98757
546.6	0.98854
546.8	0.98952
547.0	0.99077
547.2	0.99171
547.4	0.99255
547.6	0.9929
547.8	0.99361
548.0	0.99383
548.2	0.99403
548.4	0.99324
548.6	0.99272
548.8	0.9919
549.0	0.99061
549.2	0.98997
549.4	0.98826
549.6	0.98771
549.8	0.98597
550.0	0.98547
550.2	0.98385
550.4	0.98292
550.6	0.98229
550.8	0.98211
551.0	0.98188
551.2	0.98164
551.4	0.98195
551.6	0.9822
551.8	0.98273
552.0	0.98331
552.2	0.98354
552.4	0.98481
552.6	0.98608
552.8	0.98688
553.0	0.98791
553.2	0.98845
553.4	0.98921
553.6	0.99003
553.8	0.99016
554.0	0.99019
554.2	0.98999
554.4	0.99025
554.6	0.98986
554.8	0.98935
555.0	0.9891
555.2	0.98844
555.4	0.9882
555.6	0.98776
555.8	0.98736
556.0	0.98692
556.2	0.98653
556.4	0.98657
556.6	0.98634
556.8	0.98681
557.0	0.98698
557.2	0.98813
557.4	0.98824
557.6	0.98894
557.8	0.98955
558.0	0.99044
558.2	0.99102
558.4	0.99223
558.6	0.99265
558.8	0.99333
559.0	0.99369
559.2	0.99464
559.4	0.99424
559.6	0.99431
559.8	0.99461
560.0	0.9944
560.2	0.99411
560.4	0.99366
560.6	0.99311
560.8	0.99313
561.0	0.99227
561.2	0.99213
561.4	0.99152
561.6	0.99066
561.8	0.99054
562.0	0.99004
562.2	0.98996
562.4	0.98987
562.6	0.98963
562.8	0.98964
563.0	0.98946
563.2	0.98924
563.4	0.98988
563.6	0.98945
563.8	0.99012
564.0	0.99023
564.2	0.98974
564.4	0.9899
564.6	0.98981
564.8	0.98967
565.0	0.98945
565.2	0.98928
565.4	0.9886
565.6	0.98799
565.8	0.98768
566.0	0.98682
566.2	0.9862
566.4	0.98552
566.6	0.98498
566.8	0.98436
567.0	0.98406
567.2	0.98391
567.4	0.98386
567.6	0.98396
567.8	0.98401
568.0	0.98402
568.2	0.98436
568.4	0.98464
568.6	0.98525
568.8	0.986
569.0	0.98643
569.2	0.98738
569.4	0.98837
569.6	0.98882
569.8	0.98941
570.0	0.99002
570.2	0.99024
570.4	0.99047
570.6	0.99097
570.8	0.99066
571.0	0.99049
571.2	0.9901
571.4	0.98958
571.6	0.98934
571.8	0.98883
572.0	0.9884
572.2	0.98759
572.4	0.98718
572.6	0.98706
572.8	0.9859
573.0	0.98598
573.2	0.98612
573.4	0.9858
573.6	0.9857
573.8	0.98611
574.0	0.98711
574.2	0.98745
574.4	0.98795
574.6	0.9891
574.8	0.9903
575.0	0.99158
575.2	0.99293
575.4	0.99364
575.6	0.99472
575.8	0.99601
576.0	0.99698
576.2	0.99761
576.4	0.99843
576.6	0.99838
576.8	0.99812
577.0	0.99815
577.2	0.99723
577.4	0.99654
577.6	0.99527
577.8	0.9942
578.0	0.99345
578.2	0.99164
578.4	0.99019
578.6	0.98823
578.8	0.98733
579.0	0.9858
579.2	0.98454
579.4	0.98302
579.6	0.98191
579.8	0.98116
580.0	0.98017
580.2	0.98019
580.4	0.97962
580.6	0.9801
580.8	0.98022
581.0	0.98074
581.2	0.9816
581.4	0.98226
581.6	0.98319
581.8	0.98407
582.0	0.98523
582.2	0.98636
582.4	0.98743
582.6	0.98813
582.8	0.98888
583.0	0.99025
583.2	0.99075
583.4	0.99059
583.6	0.991
583.8	0.99101
584.0	0.99116
584.2	0.99048
584.4	0.98995
584.6	0.98919
584.8	0.98909
585.0	0.98837
585.2	0.9869
585.4	0.98633
585.6	0.98582
585.8	0.9853
586.0	0.98473
586.2	0.98466
586.4	0.98418
586.6	0.98424
586.8	0.98414
587.0	0.98417
587.2	0.9841
587.4	0.98551
587.6	0.9859
587.8	0.98614
588.0	0.98698
588.2	0.98763
588.4	0.98845
588.6	0.98906
588.8	0.98969
589.0	0.99067
589.2	0.99058
589.4	0.99084
589.6	0.99131
589.8	0.99133
590.0	0.991
590.2	0.99065
590.4	0.99027
590.6	0.99015
590.8	0.98934
591.0	0.98881
591.2	0.98809
591.4	0.98722
591.6	0.98697
591.8	0.9863
592.0	0.98545
592.2	0.98495
592.4	0.98502
592.6	0.98449
592.8	0.98452
593.0	0.98493
593.2	0.98498
593.4	0.9858
593.6	0.98596
593.8	0.98664
594.0	0.98778
594.2	0.98858
594.4	0.98973
594.6	0.99037
594.8	0.99205
595.0	0.99284
595.2	0.99381
595.4	0.99451
595.6	0.9954
595.8	0.99545
596.0	0.99584
596.2	0.99579
596.4	0.99548
596.6	0.99534
596.8	0.99461
597.0	0.99362
597.2	0.99268
597.4	0.99182
597.6	0.99015
597.8	0.9895
598.0	0.98758
598.2	0.98614
598.4	0.98466
598.6	0.98305
598.8	0.98223
599.0	0.98115
599.2	0.97972
599.4	0.97869
599.6	0.97854
599.8	0.97774
600.0	0.97788
600.2	0.97816
600.4	0.97828
600.6	0.97867
600.8	0.97952
601.0	0.9804
601.2	0.98162
601.4	0.98267
601.6	0.98402
601.8	0.985
602.0	0.98683
602.2	0.98814
602.4	0.989
602.6	0.98991
602.8	0.99086
603.0	0.99215
603.2	0.99233
603.4	0.99309
603.6	0.99308
603.8	0.99306
604.0	0.9927
604.2	0.99296
604.4	0.99217
604.6	0.99125
604.8	0.99111
605.0	0.98989
605.2	0.98858
605.4	0.98757
605.6	0.98668
605.8	0.98557
606.0	0.98466
606.2	0.98429
606.4	0.98333
606.6	0.98285
606.8	0.98231
607.0	0.98218
607.2	0.98192
607.4	0.98231
607.6	0.98225
607.8	0.98271
608.0	0.98336
608.2	0.98389
608.4	0.98454
608.6	0.98543
608.8	0.9863
609.0	0.98642
609.2	0.98776
609.4	0.98815
609.6	0.98893
609.8	0.98962
610.0	0.9902
610.2	0.99068
610.4	0.9909
610.6	0.99104
610.8	0.99116
611.0	0.99067
611.2	0.99095
611.4	0.99073
611.6	0.99035
611.8	0.98996
612.0	0.98908
612.2	0.98857
612.4	0.98783
612.6	0.98747
612.8	0.98638
613.0	0.98589
613.2	0.98542
613.4	0.98493
613.6	0.98473
613.8	0.98424
614.0	0.98441
614.2	0.98405
614.4	0.98396
614.6	0.98409
614.8	0.98441
615.0	0.98486
615.2	0.98526
615.4	0.98603
615.6	0.9861
615.8	0.98689
616.0	0.98703
616.2	0.98752
616.4	0.98771
616.6	0.98824
616.8	0.98864
617.0	0.98872
617.2	0.98908
617.4	0.98877
617.6	0.9888
617.8	0.98898
618.0	0.98847
618.2	0.98859
618.4	0.98823
618.6	0.98793
618.8	0.98799
619.0	0.98714
619.2	0.98646
619.4	0.986
619.6	0.98581
619.8	0.98557
620.0	0.9857
620.2	0.98553
620.4	0.98501
620.6	0.98515
620.8	0.98542
621.0	0.9856
621.2	0.98576
621.4	0.98583
621.6	0.98615
621.8	0.98696
622.0	0.98767
622.2	0.98785
622.4	0.98816
622.6	0.98902
622.8	0.98946
623.0	0.99017
623.2	0.99086
623.4	0.99134
623.6	0.99167
623.8	0.99183
624.0	0.99223
624.2	0.99224
624.4	0.99217
624.6	0.99217
624.8	0.99184
625.0	0.99127
625.2	0.99103
625.4	0.99069
625.6	0.99003
625.8	0.98935
626.0	0.98887
626.2	0.98821
626.4	0.9875
626.6	0.98662
626.8	0.98636
627.0	0.98569
627.2	0.98554
627.4	0.98494
627.6	0.98449
627.8	0.98404
628.0	0.98425
628.2	0.98414
628.4	0.98411
628.6	0.98429
628.8	0.98487
629.0	0.98532
629.2	0.98591
629.4	0.98624
629.6	0.98719
629.8	0.98763
630.0	0.98759
630.2	0.98794
630.4	0.98963
630.6	0.98973
630.8	0.99008
631.0	0.99038
631.2	0.99174
631.4	0.99107
631.6	0.99082
631.8	0.99124
632.0	0.99083
632.2	0.9908
632.4	0.99058
632.6	0.98974
632.8	0.98963
633.0	0.98883
633.2	0.98829
633.4	0.9874
633.6	0.98684
633.8	0.9856
634.0	0.98563
634.2	0.98455
634.4	0.98339
634.6	0.98339
634.8	0.98294
635.0	0.98253
635.2	0.9831
635.4	0.9825
635.6	0.98284
635.8	0.98279
636.0	0.98382
636.2	0.9838
636.4	0.98414
636.6	0.98517
636.8	0.98573
637.0	0.98716
637.2	0.98763
637.4	0.98889
637.6	0.98936
637.8	0.99015
638.0	0.99088
638.2	0.9915
638.4	0.99221
638.6	0.99267
638.8	0.99329
639.0	0.99358
639.2	0.99366
639.4	0.99379
639.6	0.99325
639.8	0.99273
640.0	0.99214
640.2	0.99161
640.4	0.99072
640.6	0.98983
640.8	0.98875
641.0	0.98674
641.2	0.98567
641.4	0.98413
641.6	0.98265
641.8	0.98102
642.0	0.97978
642.2	0.97903
642.4	0.97796
642.6	0.97731
642.8	0.97634
643.0	0.97544
643.2	0.97476
643.4	0.97407
643.6	0.97435
643.8	0.97436
644.0	0.9745
644.2	0.97471
644.4	0.97543
644.6	0.97568
644.8	0.97644
645.0	0.97745
645.2	0.97826
645.4	0.97924
645.6	0.98006
645.8	0.98154
646.0	0.98275
646.2	0.98366
646.4	0.98485
646.6	0.98577
646.8	0.98631
647.0	0.98709
647.2	0.98836
647.4	0.9884
647.6	0.9888
647.8	0.98913
648.0	0.98879
648.2	0.98879
648.4	0.989
648.6	0.98829
648.8	0.98802
649.0	0.98768
649.2	0.98703
649.4	0.98645
649.6	0.9854
649.8	0.98535
650.0	0.98457
650.2	0.98414
650.4	0.98406
650.6	0.98339
650.8	0.98336
651.0	0.98281
651.2	0.98282
651.4	0.98271
651.6	0.98333
651.8	0.98352
652.0	0.9835
652.2	0.98402
652.4	0.98472
652.6	0.98578
652.8	0.98698
653.0	0.98731
653.2	0.98858
653.4	0.9892
653.6	0.98995
653.8	0.99108
654.0	0.9922
654.2	0.9928
654.4	0.99383
654.6	0.9938
654.8	0.99491
655.0	0.99497
655.2	0.99496
655.4	0.99517
655.6	0.99458
655.8	0.9945
656.0	0.99448
656.2	0.99381
656.4	0.9929
656.6	0.9921
656.8	0.99106
657.0	0.99018
657.2	0.98911
657.4	0.98788
657.6	0.98714
657.8	0.98638
658.0	0.98527
658.2	0.98438
658.4	0.98391
658.6	0.98326
658.8	0.982
659.0	0.98182
659.2	0.98171
659.4	0.98207
659.6	0.98198
659.8	0.9822
660.0	0.98299
660.2	0.98332
660.4	0.98403
660.6	0.98505
660.8	0.98608
661.0	0.9869
661.2	0.98778
661.4	0.98935
661.6	0.99071
661.8	0.9922
662.0	0.99351
662.2	0.99476
662.4	0.99585
662.6	0.99634
662.8	0.99774
663.0	0.99823
663.2	0.99931
663.4	0.99897
663.6	0.9994
663.8	0.99896
664.0	0.99888
664.2	0.99829
664.4	0.99726
664.6	0.99644
664.8	0.99535
665.0	0.99434
665.2	0.9928
665.4	0.99043
665.6	0.98869
665.8	0.98719
666.0	0.98468
666.2	0.98295
666.4	0.98141
666.6	0.97957
666.8	0.97805
667.0	0.97604
667.2	0.97436
667.4	0.97306
667.6	0.9722
667.8	0.97133
668.0	0.97032
668.2	0.96905
668.4	0.96922
668.6	0.96953
668.8	0.96898
669.0	0.96955
669.2	0.96974
669.4	0.97078
669.6	0.97198
669.8	0.97305
670.0	0.97402
670.2	0.97571
670.4	0.97736
670.6	0.97793
670.8	0.98049
671.0	0.98214
671.2	0.98386
671.4	0.98526
671.6	0.98736
671.8	0.98837
672.0	0.98956
672.2	0.99108
672.4	0.99201
672.6	0.9926
672.8	0.99282
673.0	0.99339
673.2	0.99361
673.4	0.99373
673.6	0.9936
673.8	0.99383
674.0	0.99297
674.2	0.9924
674.4	0.99121
674.6	0.99059
674.8	0.98923
675.0	0.98823
675.2	0.9872
675.4	0.98571
675.6	0.9843
675.8	0.98379
676.0	0.98207
676.2	0.98088
676.4	0.98007
676.6	0.97949
676.8	0.97855
677.0	0.97769
677.2	0.97685
677.4	0.97685
677.6	0.97625
677.8	0.97615
678.0	0.97593
678.2	0.9757
678.4	0.97584
678.6	0.97587
678.8	0.97689
679.0	0.97702
679.2	0.97765
679.4	0.97826
679.6	0.97855
679.8	0.9791
680.0	0.98003
680.2	0.98071
680.4	0.98176
680.6	0.98231
680.8	0.98304
681.0	0.98385
681.2	0.98475
681.4	0.98512
681.6	0.98531
681.8	0.98592
682.0	0.98622
682.2	0.98656
682.4	0.98701
682.6	0.98796
682.8	0.98772
683.0	0.98766
683.2	0.98749
683.4	0.98851
683.6	0.9882
683.8	0.98827
684.0	0.98872
684.2	0.98835
684.4	0.98835
684.6	0.98918
684.8	0.98895
685.0	0.98997
685.2	0.98944
685.4	0.98976
685.6	0.98976
685.8	0.99091
686.0	0.99097
686.2	0.99149
686.4	0.99205
686.6	0.99184
686.8	0.9925
687.0	0.99253
687.2	0.99286
687.4	0.99345
687.6	0.99371
687.8	0.99356
688.0	0.99344
688.2	0.99396
688.4	0.99313
688.6	0.99356
688.8	0.9931
689.0	0.99256
689.2	0.99232
689.4	0.99177
689.6	0.99063
689.8	0.9895
690.0	0.98864
690.2	0.9879
690.4	0.98636
690.6	0.98514
690.8	0.9839
691.0	0.98236
691.2	0.98103
691.4	0.97979
691.6	0.97858
691.8	0.97764
692.0	0.97674
692.2	0.97537
692.4	0.97449
692.6	0.97399
692.8	0.97324
693.0	0.97275
693.2	0.97236
693.4	0.9723
693.6	0.97212
693.8	0.97217
694.0	0.9723
694.2	0.97276
694.4	0.97367
694.6	0.97358
694.8	0.9746
695.0	0.97632
695.2	0.97726
695.4	0.9786
695.6	0.98007
695.8	0.98152
696.0	0.98225
696.2	0.9834
696.4	0.98563
696.6	0.98667
696.8	0.9885
697.0	0.98878
697.2	0.99011
697.4	0.99127
697.6	0.99165
697.8	0.99264
698.0	0.99286
698.2	0.99348
698.4	0.99333
698.6	0.99336
698.8	0.9935
699.0	0.993
699.2	0.99271
699.4	0.9922
699.6	0.99101
699.8	0.99063
700.0	0.98885
700.2	0.98804
700.4	0.9865
700.6	0.98603
700.8	0.98509
701.0	0.98441
701.2	0.98284
701.4	0.98143
701.6	0.98076
701.8	0.98003
702.0	0.9794
702.2	0.97885
702.4	0.97873
702.6	0.97796
702.8	0.97827
703.0	0.97838
703.2	0.97851
703.4	0.97889
703.6	0.97952
703.8	0.98069
704.0	0.9816
704.2	0.9823
704.4	0.98339
704.6	0.98472
704.8	0.98579
705.0	0.98646
705.2	0.98842
705.4	0.98903
705.6	0.98978
705.8	0.99112
706.0	0.99179
706.2	0.99299
706.4	0.9933
706.6	0.99384
706.8	0.99388
707.0	0.99358
707.2	0.99366
707.4	0.99334
707.6	0.99265
707.8	0.99147
708.0	0.99045
708.2	0.98927
708.4	0.98793
708.6	0.98622
708.8	0.98482
709.0	0.98338
709.2	0.98123
709.4	0.97888
709.6	0.97721
709.8	0.97602
710.0	0.97432
710.2	0.97271
710.4	0.97134
710.6	0.97031
710.8	0.96912
711.0	0.96835
711.2	0.96779
711.4	0.96725
711.6	0.9678
711.8	0.96862
712.0	0.96844
712.2	0.96912
712.4	0.97002
712.6	0.97152
712.8	0.9731
713.0	0.97493
713.2	0.97654
713.4	0.97821
713.6	0.9802
713.8	0.98278
714.0	0.98471
714.2	0.98708
714.4	0.98837
714.6	0.99091
714.8	0.99251
715.0	0.99434
715.2	0.99559
715.4	0.99706
715.6	0.99808
715.8	0.99885
716.0	0.99875
716.2	0.99869
716.4	0.99797
716.6	0.99731
716.8	0.99578
717.0	0.99502
717.2	0.993
717.4	0.99117
717.6	0.98962
717.8	0.98751
718.0	0.98537
718.2	0.98233
718.4	0.98029
718.6	0.97836
718.8	0.97652
719.0	0.97429
719.2	0.97259
719.4	0.97109
719.6	0.96994
719.8	0.9691
720.0	0.96851
720.2	0.96799
720.4	0.96794
720.6	0.96786
720.8	0.96857
721.0	0.96925
721.2	0.96988
721.4	0.97098
721.6	0.9713
721.8	0.97252
722.0	0.97369
722.2	0.97488
722.4	0.97505
722.6	0.97634
722.8	0.97721
723.0	0.97804
723.2	0.97856
723.4	0.97922
723.6	0.98051
723.8	0.98172
724.0	0.98301
724.2	0.98518
724.4	0.98761
724.6	0.98867
724.8	0.98911
725.0	0.98694
725.2	0.9815
725.4	0.97049
725.6	0.95102
725.8	0.92038
726.0	0.8724
726.2	0.8121
726.4	0.73951
726.6	0.65641
726.8	0.56755
727.0	0.47891
727.2	0.39669
727.4	0.31503
727.6	0.25226
727.8	0.20073
728.0	0.15865
728.2	0.12521
728.4	0.09881
728.6	0.07809
728.8	0.06115
729.0	0.04854
729.2	0.03865
729.4	0.03092
729.6	0.02486
729.8	0.02005
730.0	0.01626
730.2	0.014
730.4	0.0114
730.6	0.00936
730.8	0.00769
731.0	0.00634
731.2	0.00528
731.4	0.00439
731.6	0.00371
731.8	0.00311
732.0	0.00259
732.2	0.00219
732.4	0.00185
732.6	0.00156
732.8	0.00132
733.0	0.00106
733.2	9.0154e-04
733.4	7.7388e-04
733.6	6.6008e-04
733.8	5.6623e-04
734.0	4.8929e-04
734.2	4.1817e-04
734.4	3.699e-04
734.6	3.258e-04
734.8	2.826e-04
735.0	2.4534e-04
735.2	2.1311e-04
735.4	1.8435e-04
735.6	1.5898e-04
735.8	1.3884e-04
736.0	1.2172e-04
736.2	1.0695e-04
736.4	9.4357e-05
736.6	8.29e-05
736.8	7.2168e-05
737.0	6.4256e-05
737.2	5.5922e-05
737.4	4.9914e-05
737.6	4.3901e-05
737.8	3.8996e-05
738.0	3.4614e-05
738.2	3.0677e-05
738.4	2.7145e-05
738.6	2.4124e-05
738.8	2.2023e-05
739.0	1.901e-05
739.2	1.7179e-05
739.4	1.52e-05
739.6	1.3432e-05
739.8	1.2066e-05
740.0	1.0794e-05
740.2	9.6514e-06
740.4	8.9408e-06
740.6	7.9414e-06
740.8	7.0511e-06
741.0	6.2765e-06
741.2	5.6032e-06
741.4	5.1384e-06
741.6	4.5001e-06
741.8	4.0932e-06
742.0	3.7583e-06
742.2	3.2478e-06
742.4	2.8644e-06
742.6	2.9546e-06
742.8	2.6097e-06
743.0	2.412e-06
743.2	2.3153e-06
743.4	1.9422e-06
743.6	1.7464e-06
743.8	1.6763e-06
744.0	1.4318e-06
744.2	1.2462e-06
744.4	1.309e-06
744.6	1.0439e-06
744.8	8.7144e-07
745.0	8.9035e-07
745.2	9.1849e-07
745.4	7.0321e-07
745.6	5.7932e-07
745.8	5.3913e-07
746.0	3.7487e-07
746.2	3.2516e-07
746.4	3.7426e-07
746.6	4.9383e-07
746.8	4.5336e-07
747.0	2.8927e-07
747.2	3.084e-07
747.4	2.6217e-07
747.6	2.3484e-07
747.8	2.0734e-07
748.0	1.7427e-07
748.2	2.6684e-07
748.4	2.1677e-07
748.6	4.0335e-08
748.8	6.0802e-08
749.0	1.4177e-07
749.2	1.6281e-07
749.4	5.962e-08
749.6	1.6401e-08
749.8	2.3744e-08
750.0	1.1283e-07
750.2	3.7568e-08
750.4	3.8657e-08
750.6	1.4757e-07
750.8	5.2644e-08
751.0	1.0119e-07
751.2	8.6856e-08
751.4	8.9935e-08
751.6	4.4069e-08
751.8	8.5849e-08
752.0	2.1147e-08
752.2	1.9744e-08
752.4	4.5666e-08
752.6	4.4083e-08
752.8	1.4342e-08
753.0	4.2695e-08
753.2	6.4313e-08
753.4	1.5692e-08
753.6	4.7836e-08
753.8	5.3345e-08
754.0	3.4988e-08
754.2	1.7821e-08
754.4	1.341e-08
754.6	1.3417e-08
754.8	1.5535e-08
755.0	5.71e-08
755.2	2.1877e-08
755.4	1.3556e-08
755.6	1.3573e-08
755.8	2.6427e-08
756.0	7.3108e-08
756.2	9.3212e-08
756.4	4.7141e-08
756.6	7.6476e-08
756.8	1.305e-07
757.0	4.7101e-08
757.2	1.3806e-08
757.4	1.3822e-08
757.6	1.3863e-08
757.8	1.3872e-08
758.0	3.7183e-08
758.2	6.3023e-08
758.4	3.0313e-08
758.6	1.3915e-08
758.8	1.3924e-08
759.0	1.3955e-08
759.2	1.4002e-08
759.4	1.4042e-08
759.6	3.9604e-08
759.8	8.9309e-08
760.0	4.9837e-08
760.2	6.495e-08
760.4	3.0994e-08
760.6	1.739e-08
760.8	2.0601e-08
761.0	3.2604e-08
761.2	2.8121e-08
761.4	1.4375e-08
761.6	1.4399e-08
761.8	1.4424e-08
762.0	3.0633e-08
762.2	4.3313e-08
762.4	5.985e-08
762.6	6.0027e-08
762.8	2.3332e-08
763.0	9.3038e-08
763.2	1.9362e-08
763.4	2.3053e-08
763.6	5.8955e-08
763.8	1.0208e-07
764.0	4.1755e-08
764.2	2.1975e-08
764.4	1.2905e-07
764.6	6.9864e-08
764.8	4.9641e-08
765.0	2.8297e-08
765.2	1.9323e-08
765.4	4.6243e-08
765.6	5.96e-08
765.8	5.9659e-08
766.0	2.0768e-08
766.2	3.7307e-08
766.4	4.0896e-08
766.6	1.4998e-08
766.8	1.5073e-08
767.0	1.6454e-08
767.2	2.879e-08
767.4	1.8132e-08
767.6	5.013e-08
767.8	1.1863e-07
768.0	7.389e-08
768.2	2.8076e-08
768.4	3.0588e-08
768.6	3.0603e-08
768.8	1.4914e-07
769.0	7.4684e-08
769.2	1.5349e-08
769.4	1.7687e-08
769.6	5.5043e-08
769.8	3.0165e-08
770.0	1.7272e-08
770.2	1.5531e-08
770.4	1.5567e-08
770.6	2.7736e-08
770.8	1.3189e-07
771.0	6.2427e-08
771.2	1.5535e-07
771.4	2.4343e-08
771.6	1.5753e-08
771.8	1.5768e-08
772.0	2.1723e-08
772.2	6.2218e-08
772.4	4.1956e-08
772.6	3.247e-08
772.8	4.3165e-08
773.0	7.6531e-08
773.2	5.5752e-08
773.4	1.6052e-08
773.6	1.6069e-08
773.8	3.9176e-08
774.0	2.4203e-08
774.2	9.1972e-08
774.4	2.4172e-08
774.6	2.4278e-08
774.8	2.4369e-08
775.0	3.8941e-08
775.2	2.3217e-08
775.4	1.6987e-08
775.6	1.633e-08
775.8	3.1121e-08
776.0	5.4429e-08
776.2	3.3876e-08
776.4	4.7058e-08
776.6	2.2709e-08
776.8	1.7049e-08
777.0	1.6592e-08
777.2	2.6811e-08
777.4	3.8262e-08
777.6	1.7838e-08
777.8	5.4895e-08
778.0	2.6585e-08
778.2	1.7608e-08
778.4	1.6844e-08
778.6	1.6867e-08
778.8	2.2709e-08
779.0	6.5855e-08
779.2	2.1579e-08
779.4	3.4605e-08
779.6	7.8819e-08
779.8	3.9098e-08
780.0	3.3602e-08
780.2	8.911e-08
780.4	1.8655e-08
780.6	1.7292e-08
780.8	1.927e-08
781.0	3.6906e-08
781.2	6.7443e-08
781.4	9.2129e-08
781.6	8.4209e-08
781.8	1.9873e-08
782.0	1.7483e-08
782.2	1.7524e-08
782.4	1.7565e-08
782.6	1.7588e-08
782.8	3.0814e-08
783.0	1.2798e-07
783.2	1.7104e-07
783.4	3.466e-08
783.6	2.8745e-08
783.8	4.0276e-08
784.0	2.4957e-08
784.2	1.5049e-08
784.4	7.4711e-08
784.6	9.6942e-08
784.8	1.972e-08
785.0	2.9984e-08
785.2	5.235e-08
785.4	3.5687e-08
785.6	2.5822e-08
785.8	1.0964e-07
786.0	1.0983e-07
786.2	3.6407e-08
786.4	3.0005e-08
786.6	3.2076e-08
786.8	1.8443e-08
787.0	1.847e-08
787.2	1.8496e-08
787.4	3.1861e-08
787.6	2.4716e-08
787.8	2.1798e-08
788.0	2.3134e-08
788.2	1.8727e-08
788.4	1.8794e-08
788.6	1.88e-08
788.8	5.9939e-08
789.0	5.7962e-08
789.2	3.0274e-08
789.4	9.5495e-09
789.6	2.1799e-08
789.8	5.0556e-08
790.0	4.8982e-08
790.2	2.1203e-08
790.4	9.5326e-09
790.6	9.5717e-09
790.8	9.611e-09
791.0	1.2595e-08
791.2	1.6689e-08
791.4	2.3948e-08
791.6	3.7395e-08
791.8	5.8134e-08
792.0	5.8269e-08
792.2	5.8404e-08
792.4	5.4468e-08
792.6	5.0702e-08
792.8	5.9399e-08
793.0	8.7579e-08
793.2	1.2713e-07
793.4	1.0045e-07
793.6	7.9375e-08
793.8	3.4772e-08
794.0	1.505e-08
794.2	1.4355e-08
794.4	2.9708e-08
794.6	5.9804e-08
794.8	4.9293e-08
795.0	4.063e-08
795.2	3.0902e-08
795.4	2.3394e-08
795.6	1.7719e-08
795.8	1.3429e-08
796.0	1.0178e-08
796.2	1.0191e-08
796.4	1.022e-08
796.6	2.6715e-08
796.8	7.306e-08
797.0	8.715e-08
797.2	4.2314e-08
797.4	2.0584e-08
797.6	1.469e-08
797.8	1.0483e-08
798.0	1.0391e-08
798.2	1.0404e-08
798.4	1.0427e-08
798.6	1.0459e-08
798.8	1.0491e-08
799.0	1.0522e-08
799.2	1.0553e-08
799.4	1.8318e-08
799.6	3.2155e-08
799.8	3.2036e-08
800.0	1.8319e-08
800.2	1.0653e-08
800.4	1.0669e-08
800.6	1.0686e-08
800.8	1.6573e-08
801.0	2.5877e-08
801.2	2.9653e-08
801.4	2.5243e-08
801.6	2.2015e-08
801.8	3.4308e-08
802.0	5.3467e-08
802.2	4.4861e-08
802.4	3.6559e-08
802.6	2.6562e-08
802.8	1.7043e-08
803.0	1.1012e-08
803.2	2.8664e-08
803.4	7.461e-08
803.6	4.7477e-08
803.8	2.8707e-08
804.0	3.4761e-08
804.2	8.6716e-08
804.4	2.0639e-07
804.6	4.9069e-08
804.8	1.1666e-08
805.0	1.1271e-08
805.2	1.1288e-08
805.4	1.3002e-08
805.6	1.7226e-08
805.8	2.2471e-08
806.0	1.6045e-08
806.2	1.1456e-08
806.4	1.5073e-08
806.6	2.0016e-08
806.8	2.8892e-08
807.0	4.5108e-08
807.2	6.6854e-08
807.4	2.8424e-08
807.6	1.2085e-08
807.8	1.7696e-08
808.0	2.7654e-08
808.2	3.8593e-08
808.4	4.7527e-08
808.6	5.824e-08
808.8	2.6565e-08
809.0	1.2117e-08
809.2	1.1781e-08
809.4	1.1821e-08
809.6	1.999e-08
809.8	5.8199e-08
810.0	1.6356e-07
810.2	4.5158e-08
810.4	1.2467e-08
810.6	1.2003e-08
810.8	1.2011e-08
811.0	1.2018e-08
811.2	1.2024e-08
811.4	1.203e-08
811.6	1.2036e-08
811.8	1.2041e-08
812.0	2.2765e-08
812.2	4.3603e-08
812.4	6.2422e-08
812.6	6.718e-08
812.8	6.995e-08
813.0	2.9283e-08
813.2	1.2259e-08
813.4	1.2051e-08
813.6	1.2056e-08
813.8	1.2055e-08
814.0	1.205e-08
814.2	1.2535e-08
814.4	3.3972e-08
814.6	9.2068e-08
814.8	4.3564e-08
815.0	1.8804e-08
815.2	1.2145e-08
815.4	1.2139e-08
815.6	1.2132e-08
815.8	1.2128e-08
816.0	1.2123e-08
816.2	1.8547e-08
816.4	2.8949e-08
816.6	4.5198e-08
816.8	7.0586e-08
817.0	1.0858e-07
817.2	3.724e-08
817.4	1.2773e-08
817.6	1.2234e-08
817.8	1.223e-08
818.0	1.6813e-08
818.2	3.2206e-08
818.4	5.9946e-08
818.6	2.7392e-08
818.8	1.2517e-08
819.0	1.2243e-08
819.2	1.226e-08
819.4	1.8187e-08
819.6	3.9963e-08
819.8	8.4089e-08
820.0	3.264e-08
820.2	1.267e-08
820.4	1.232e-08
820.6	1.2325e-08
820.8	1.2331e-08
821.0	1.2338e-08
821.2	1.2345e-08
821.4	1.2377e-08
821.6	1.2409e-08
821.8	2.1398e-08
822.0	3.7522e-08
822.2	3.7542e-08
822.4	2.1432e-08
822.6	1.2442e-08
822.8	1.2446e-08
823.0	1.2449e-08
823.2	2.518e-08
823.4	5.205e-08
823.6	5.215e-08
823.8	2.5325e-08
824.0	1.2568e-08
824.2	1.2579e-08
824.4	1.259e-08
824.6	1.2591e-08
824.8	1.2592e-08
825.0	1.578e-08
825.2	2.4671e-08
825.4	3.7274e-08
825.6	2.1924e-08
825.8	1.2895e-08
826.0	1.6695e-08
826.2	2.2148e-08
826.4	2.219e-08
826.6	1.679e-08
826.8	1.3116e-08
827.0	2.8698e-08
827.2	6.2794e-08
827.4	7.7343e-08
827.6	9.3586e-08
827.8	6.7632e-08
828.0	2.919e-08
828.2	1.2921e-08
828.4	1.2951e-08
828.6	1.2981e-08
828.8	2.6382e-08
829.0	5.46e-08
829.2	5.4284e-08
829.4	2.6306e-08
829.6	1.3076e-08
829.8	1.3096e-08
830.0	1.3116e-08
830.2	2.6543e-08
830.4	5.49e-08
830.6	6.33e-08
830.8	4.0687e-08
831.0	2.6237e-08
831.2	1.8815e-08
831.4	1.3492e-08
831.6	1.3314e-08
831.8	1.3337e-08
832.0	1.3358e-08
832.2	1.3377e-08
832.4	1.3397e-08
832.6	1.344e-08
832.8	1.3483e-08
833.0	1.3491e-08
833.2	1.3497e-08
833.4	1.3509e-08
833.6	1.3527e-08
833.8	1.3685e-08
834.0	2.7167e-08
834.2	5.3934e-08
834.4	5.4582e-08
834.6	5.4675e-08
834.8	5.4775e-08
835.0	5.4883e-08
835.2	5.3185e-08
835.4	2.7325e-08
835.6	1.4039e-08
835.8	1.3822e-08
836.0	1.3837e-08
836.2	1.8389e-08
836.4	3.2262e-08
836.6	5.4214e-08
836.8	2.7766e-08
837.0	1.4221e-08
837.2	1.3902e-08
837.4	1.3913e-08
837.6	1.3942e-08
837.8	1.3988e-08
838.0	1.4035e-08
838.2	1.4086e-08
838.4	1.4136e-08
838.6	1.4161e-08
838.8	1.4184e-08
839.0	1.6308e-08
839.2	2.1644e-08
839.4	2.9037e-08
839.6	6.6146e-08
839.8	1.5068e-07
840.0	6.2855e-08
840.2	2.3753e-08
840.4	1.4331e-08
840.6	1.4353e-08
840.8	1.4502e-08
841.0	3.4982e-08
841.2	8.4385e-08
841.4	4.2881e-08
841.6	2.0766e-08
841.8	1.4467e-08
842.0	1.45e-08
842.2	1.4702e-08
842.4	2.0545e-08
842.6	2.8709e-08
842.8	3.8206e-08
843.0	5.0716e-08
843.2	4.4688e-08
843.4	2.5483e-08
843.6	1.4696e-08
843.8	1.4696e-08
844.0	1.4695e-08
844.2	3.0054e-08
844.4	6.2369e-08
844.6	6.1221e-08
844.8	2.9692e-08
845.0	1.4932e-08
845.2	1.4948e-08
845.4	1.4965e-08
845.6	1.4967e-08
845.8	1.4968e-08
846.0	2.4138e-08
846.2	6.4006e-08
846.4	1.6309e-07
846.6	8.7689e-08
846.8	4.7149e-08
847.0	2.993e-08
847.2	1.9202e-08
847.4	1.5222e-08
847.6	1.5247e-08
847.8	1.5271e-08
848.0	1.5305e-08
848.2	1.5339e-08
848.4	3.4373e-08
848.6	7.9308e-08
848.8	8.6111e-08
849.0	5.0462e-08
849.2	3.0869e-08
849.4	3.0943e-08
849.6	3.1018e-08
849.8	3.3182e-08
850.0	3.668e-08
850.2	4.0547e-08
850.4	4.4821e-08
850.6	4.9546e-08
850.8	5.4768e-08
851.0	6.0542e-08
851.2	6.4438e-08
851.4	6.4122e-08
851.6	6.3807e-08
851.8	6.3494e-08
852.0	6.3183e-08
852.2	6.2873e-08
852.4	6.2565e-08
852.6	6.2258e-08
852.8	6.1953e-08
853.0	6.1649e-08
853.2	6.1381e-08
853.4	6.1149e-08
853.6	6.0917e-08
853.8	6.0687e-08
854.0	6.0457e-08
854.2	6.0229e-08
854.4	6.0001e-08
854.6	5.9774e-08
854.8	5.9548e-08
855.0	5.9323e-08
855.2	5.9418e-08
855.4	5.9699e-08
855.6	5.9982e-08
855.8	6.0265e-08
856.0	6.055e-08
856.2	6.0837e-08
856.4	6.1125e-08
856.6	6.1414e-08
856.8	6.1704e-08
857.0	6.1996e-08
857.2	6.2714e-08
857.4	6.3562e-08
857.6	6.4422e-08
857.8	6.5293e-08
858.0	6.6176e-08
858.2	6.7071e-08
858.4	6.7978e-08
858.6	6.8897e-08
858.8	6.9828e-08
859.0	7.0773e-08
859.2	6.8633e-08
859.4	6.6321e-08
859.6	6.4086e-08
859.8	6.1927e-08
860.0	5.984e-08
860.2	5.7824e-08
860.4	5.5876e-08
860.6	5.3993e-08
860.8	5.2174e-08
861.0	5.0416e-08
861.2	4.9455e-08
861.4	5.0124e-08
861.6	5.0802e-08
861.8	5.1489e-08
862.0	5.2185e-08
862.2	5.2891e-08
862.4	5.3606e-08
862.6	5.4331e-08
862.8	5.5066e-08
863.0	5.581e-08
863.2	5.573e-08
863.4	5.4686e-08
863.6	5.3662e-08
863.8	5.2657e-08
864.0	5.1671e-08
864.2	5.0704e-08
864.4	4.9754e-08
864.6	4.8823e-08
864.8	4.7909e-08
865.0	4.7011e-08
865.2	4.6788e-08
865.4	4.6997e-08
865.6	4.7207e-08
865.8	4.7418e-08
866.0	4.763e-08
866.2	4.7843e-08
866.4	4.8057e-08
866.6	4.8272e-08
866.8	4.8488e-08
867.0	4.8705e-08
867.2	4.953e-08
867.4	5.0573e-08
867.6	5.1637e-08
867.8	5.2723e-08
868.0	5.3833e-08
868.2	5.4965e-08
868.4	5.6122e-08
868.6	5.7303e-08
868.8	5.8509e-08
869.0	5.974e-08
869.2	5.8774e-08
869.4	5.7599e-08
869.6	5.6447e-08
869.8	5.5318e-08
870.0	5.4212e-08
870.2	5.3128e-08
870.4	5.2066e-08
870.6	5.1025e-08
870.8	5.0005e-08
871.0	4.9005e-08
871.2	4.8278e-08
871.4	4.8149e-08
871.6	4.8019e-08
871.8	4.7891e-08
872.0	4.7762e-08
872.2	4.7634e-08
872.4	4.7506e-08
872.6	4.7379e-08
872.8	4.7252e-08
873.0	4.7125e-08
873.2	4.668e-08
873.4	4.5856e-08
873.6	4.5046e-08
873.8	4.4251e-08
874.0	4.347e-08
874.2	4.2702e-08
874.4	4.1949e-08
874.6	4.1208e-08
874.8	4.0481e-08
875.0	3.9766e-08
875.2	3.9384e-08
875.4	3.9214e-08
875.6	3.9044e-08
875.8	3.8876e-08
876.0	3.8708e-08
876.2	3.854e-08
876.4	3.8374e-08
876.6	3.8208e-08
876.8	3.8043e-08
877.0	3.7879e-08
877.2	3.8018e-08
877.4	3.8255e-08
877.6	3.8493e-08
877.8	3.8733e-08
878.0	3.8974e-08
878.2	3.9216e-08
878.4	3.946e-08
878.6	3.9706e-08
878.8	3.9953e-08
879.0	4.0202e-08
879.2	4.0341e-08
879.4	4.0471e-08
879.6	4.0601e-08
879.8	4.0731e-08
880.0	4.0862e-08
880.2	4.0993e-08
880.4	4.1125e-08
880.6	4.1257e-08
880.8	4.139e-08
881.0	4.1523e-08
881.2	4.1424e-08
881.4	4.0824e-08
881.6	4.0232e-08
881.8	3.965e-08
882.0	3.9075e-08
882.2	3.8509e-08
882.4	3.7952e-08
882.6	3.7402e-08
882.8	3.686e-08
883.0	3.6326e-08
883.2	3.5553e-08
883.4	3.4526e-08
883.6	3.3529e-08
883.8	3.256e-08
884.0	3.162e-08
884.2	3.0707e-08
884.4	2.982e-08
884.6	2.8958e-08
884.8	2.8122e-08
885.0	2.7309e-08
885.2	2.7461e-08
885.4	2.8184e-08
885.6	2.8926e-08
885.8	2.9687e-08
886.0	3.0469e-08
886.2	3.1271e-08
886.4	3.2094e-08
886.6	3.2939e-08
886.8	3.3806e-08
887.0	3.4696e-08
887.2	3.5409e-08
887.4	3.6085e-08
887.6	3.6773e-08
887.8	3.7475e-08
888.0	3.8189e-08
888.2	3.8918e-08
888.4	3.966e-08
888.6	4.0417e-08
888.8	4.1188e-08
889.0	4.1974e-08
889.2	4.1166e-08
889.4	4.031e-08
889.6	3.9472e-08
889.8	3.8651e-08
890.0	3.7847e-08
890.2	3.706e-08
890.4	3.6289e-08
890.6	3.5534e-08
890.8	3.4795e-08
891.0	3.4072e-08
891.2	3.3575e-08
891.4	3.3603e-08
891.6	3.3631e-08
891.8	3.3659e-08
892.0	3.3687e-08
892.2	3.3715e-08
892.4	3.3743e-08
892.6	3.3771e-08
892.8	3.3799e-08
893.0	3.3827e-08
893.2	3.3925e-08
893.4	3.4106e-08
893.6	3.4289e-08
893.8	3.4472e-08
894.0	3.4656e-08
894.2	3.4842e-08
894.4	3.5028e-08
894.6	3.5215e-08
894.8	3.5404e-08
895.0	3.5593e-08
895.2	3.5337e-08
895.4	3.4813e-08
895.6	3.4297e-08
895.8	3.3789e-08
896.0	3.3288e-08
896.2	3.2795e-08
896.4	3.2308e-08
896.6	3.183e-08
896.8	3.1358e-08
897.0	3.0893e-08
897.2	3.1357e-08
897.4	3.2074e-08
897.6	3.2806e-08
897.8	3.3556e-08
898.0	3.4323e-08
898.2	3.5107e-08
898.4	3.591e-08
898.6	3.673e-08
898.8	3.757e-08
899.0	3.8428e-08
899.2	3.7304e-08
899.4	3.6144e-08
899.6	3.502e-08
899.8	3.3931e-08
900.0	3.2875e-08
900.2	3.1853e-08
900.4	3.0862e-08
900.6	2.9903e-08
900.8	2.8973e-08
901.0	2.8072e-08
901.2	2.7627e-08
901.4	2.8277e-08
901.6	2.8943e-08
901.8	2.9624e-08
902.0	3.0321e-08
902.2	3.1034e-08
902.4	3.1765e-08
902.6	3.2512e-08
902.8	3.3277e-08
903.0	3.406e-08
903.2	3.4506e-08
903.4	3.4531e-08
903.6	3.4556e-08
903.8	3.458e-08
904.0	3.4605e-08
904.2	3.463e-08
904.4	3.4655e-08
904.6	3.468e-08
904.8	3.4705e-08
905.0	3.473e-08
905.2	3.5184e-08
905.4	3.5901e-08
905.6	3.6633e-08
905.8	3.738e-08
906.0	3.8142e-08
906.2	3.892e-08
906.4	3.9713e-08
906.6	4.0523e-08
906.8	4.1349e-08
907.0	4.2192e-08
907.2	4.202e-08
907.4	4.1603e-08
907.6	4.1191e-08
907.8	4.0782e-08
908.0	4.0378e-08
908.2	3.9978e-08
908.4	3.9581e-08
908.6	3.9189e-08
908.8	3.88e-08
909.0	3.8415e-08
909.2	3.6087e-08
909.4	3.3873e-08
909.6	3.1794e-08
909.8	2.9843e-08
910.0	2.8012e-08
910.2	2.6293e-08
910.4	2.468e-08
910.6	2.3165e-08
910.8	2.1744e-08
911.0	2.041e-08
911.2	1.8693e-08
911.4	1.5904e-08
911.6	1.3532e-08
911.8	1.1513e-08
912.0	9.7958e-09
912.2	8.3345e-09
912.4	7.0912e-09
912.6	6.0334e-09
912.8	5.1334e-09
913.0	4.3677e-09
913.2	3.6377e-09
913.4	2.9435e-09
913.6	2.3818e-09
913.8	1.9273e-09
914.0	1.5595e-09
914.2	1.2619e-09
914.4	1.0211e-09
914.6	8.2626e-10
914.8	6.6859e-10
915.0	5.41e-10
915.2	4.9833e-10
915.4	4.9867e-10
915.6	4.9901e-10
915.8	4.9935e-10
916.0	4.9969e-10
916.2	5.0003e-10
916.4	5.0038e-10
916.6	5.0072e-10
916.8	5.0106e-10
917.0	5.014e-10
917.2	5.0176e-10
917.4	5.0211e-10
917.6	5.0247e-10
917.8	5.0283e-10
918.0	5.0319e-10
918.2	5.0355e-10
918.4	5.0391e-10
918.6	5.0427e-10
918.8	5.0463e-10
919.0	5.0499e-10
919.2	8.1795e-10
919.4	1.3379e-09
919.6	2.1885e-09
919.8	3.5798e-09
920.0	5.8556e-09
920.2	9.5782e-09
920.4	1.5667e-08
920.6	2.5628e-08
920.8	4.192e-08
921.0	6.8569e-08
921.2	9.7856e-08
921.4	9.374e-08
921.6	8.9798e-08
921.8	8.6021e-08
922.0	8.2404e-08
922.2	7.8938e-08
922.4	7.5618e-08
922.6	7.2438e-08
922.8	6.9391e-08
923.0	6.6473e-08
923.2	5.699e-08
923.4	4.2425e-08
923.6	3.1582e-08
923.8	2.3511e-08
924.0	1.7502e-08
924.2	1.3029e-08
924.4	9.6992e-09
924.6	7.2203e-09
924.8	5.375e-09
925.0	4.0013e-09
925.2	3.5904e-09
925.4	3.5952e-09
925.6	3.6e-09
925.8	3.6048e-09
926.0	3.6096e-09
926.2	3.6144e-09
926.4	3.6193e-09
926.6	3.6241e-09
926.8	3.6289e-09
927.0	3.6338e-09
927.2	3.091e-09
927.4	2.5367e-09
927.6	2.0819e-09
927.8	1.7086e-09
928.0	1.4023e-09
928.2	1.1508e-09
928.4	9.4449e-10
928.6	7.7515e-10
928.8	6.3616e-10
929.0	5.2446e-10
929.2	5.8169e-10
929.4	6.4515e-10
929.6	7.1554e-10
929.8	7.9362e-10
930.0	8.8021e-10
930.2	9.7625e-10
930.4	1.0828e-09
930.6	1.2009e-09
930.8	1.3319e-09
931.0	1.4773e-09
931.2	1.6464e-09
931.4	1.8641e-09
931.6	2.1106e-09
931.8	2.3897e-09
932.0	2.7058e-09
932.2	3.0636e-09
932.4	3.4687e-09
932.6	3.9274e-09
932.8	4.4468e-09
933.0	5.0348e-09
933.2	5.2463e-09
933.4	4.8967e-09
933.6	4.5705e-09
933.8	4.2659e-09
934.0	3.9817e-09
934.2	3.7164e-09
934.4	3.4688e-09
934.6	3.2377e-09
934.8	3.0219e-09
935.0	2.8206e-09
935.2	2.5948e-09
935.4	2.3663e-09
935.6	2.158e-09
935.8	1.968e-09
936.0	1.7948e-09
936.2	1.6368e-09
936.4	1.4927e-09
936.6	1.3613e-09
936.8	1.2414e-09
937.0	1.1321e-09
937.2	1.2532e-09
937.4	1.4454e-09
937.6	1.6671e-09
937.8	1.9228e-09
938.0	2.2177e-09
938.2	2.5578e-09
938.4	2.9501e-09
938.6	3.4025e-09
938.8	3.9244e-09
939.0	4.4887e-09
939.2	3.707e-09
939.4	3.0615e-09
939.6	2.5283e-09
939.8	2.088e-09
940.0	1.7244e-09
940.2	1.4241e-09
940.4	1.1761e-09
940.6	9.7133e-10
940.8	8.0218e-10
941.0	6.6249e-10
941.2	5.7085e-10
941.4	5.7178e-10
941.6	5.7271e-10
941.8	5.7364e-10
942.0	5.7458e-10
942.2	5.7551e-10
942.4	5.7645e-10
942.6	5.7739e-10
942.8	5.7833e-10
943.0	5.7927e-10
943.2	6.3756e-10
943.4	7.9927e-10
943.6	1.002e-09
943.8	1.2561e-09
944.0	1.5747e-09
944.2	1.9741e-09
944.4	2.4748e-09
944.6	3.1025e-09
944.8	3.8894e-09
945.0	4.8758e-09
945.2	4.6269e-09
945.4	3.7018e-09
945.6	2.9616e-09
945.8	2.3695e-09
946.0	1.8957e-09
946.2	1.5167e-09
946.4	1.2134e-09
946.6	9.7082e-10
946.8	7.7671e-10
947.0	6.2141e-10
947.2	7.6723e-10
947.4	1.0386e-09
947.6	1.4059e-09
947.8	1.9032e-09
948.0	2.5763e-09
948.2	3.4874e-09
948.4	4.7209e-09
948.6	6.3905e-09
948.8	8.6507e-09
949.0	1.1529e-08
949.2	1.0004e-08
949.4	8.6809e-09
949.6	7.5325e-09
949.8	6.5361e-09
950.0	5.6714e-09
950.2	4.9212e-09
950.4	4.2702e-09
950.6	3.7053e-09
950.8	3.2151e-09
951.0	2.7898e-09
951.2	2.4217e-09
951.4	2.1056e-09
951.6	1.8308e-09
951.8	1.5918e-09
952.0	1.384e-09
952.2	1.2034e-09
952.4	1.0463e-09
952.6	9.0974e-10
952.8	7.9099e-10
953.0	6.8775e-10
953.2	6.3289e-10
953.4	6.3417e-10
953.6	6.3545e-10
953.8	6.3673e-10
954.0	6.3802e-10
954.2	6.3931e-10
954.4	6.406e-10
954.6	6.4189e-10
954.8	6.4318e-10
955.0	6.4448e-10
955.2	7.2919e-10
955.4	8.9167e-10
955.6	1.0903e-09
955.8	1.3333e-09
956.0	1.6304e-09
956.2	1.9937e-09
956.4	2.4379e-09
956.6	2.9811e-09
956.8	3.6453e-09
957.0	4.4575e-09
957.2	3.9323e-09
957.4	3.229e-09
957.6	2.6515e-09
957.8	2.1773e-09
958.0	1.7879e-09
958.2	1.4681e-09
958.4	1.2056e-09
958.6	9.8995e-10
958.8	8.129e-10
959.0	6.7218e-10
959.2	6.7368e-10
959.4	6.7518e-10
959.6	6.7668e-10
959.8	6.7819e-10
960.0	6.797e-10
960.2	6.8121e-10
960.4	6.8273e-10
960.6	6.8425e-10
960.8	6.8577e-10
961.0	6.873e-10
961.2	6.8881e-10
961.4	6.9028e-10
961.6	6.9176e-10
961.8	6.9324e-10
962.0	6.9472e-10
962.2	6.962e-10
962.4	6.9769e-10
962.6	6.9918e-10
962.8	7.0067e-10
963.0	7.0217e-10
963.2	7.0387e-10
963.4	7.0584e-10
963.6	7.0783e-10
963.8	7.0982e-10
964.0	7.1181e-10
964.2	7.1381e-10
964.4	7.1582e-10
964.6	7.1783e-10
964.8	7.1985e-10
965.0	7.2187e-10
965.2	7.2375e-10
965.4	7.2554e-10
965.6	7.2734e-10
965.8	7.2914e-10
966.0	7.3094e-10
966.2	7.3276e-10
966.4	7.3457e-10
966.6	7.3639e-10
966.8	7.3821e-10
967.0	7.4004e-10
967.2	9.0864e-10
967.4	1.1531e-09
967.6	1.4633e-09
967.8	1.857e-09
968.0	2.3566e-09
968.2	2.9906e-09
968.4	3.7952e-09
968.6	4.8162e-09
968.8	6.1119e-09
969.0	7.508e-09
969.2	6.4989e-09
969.4	5.6254e-09
969.6	4.8693e-09
969.8	4.2149e-09
970.0	3.6484e-09
970.2	3.158e-09
970.4	2.7336e-09
970.6	2.3662e-09
970.8	2.0481e-09
971.0	1.7729e-09
971.2	1.5534e-09
971.4	1.4513e-09
971.6	1.3559e-09
971.8	1.2667e-09
972.0	1.1835e-09
972.2	1.1057e-09
972.4	1.033e-09
972.6	9.6505e-10
972.8	9.016e-10
973.0	8.4233e-10
973.2	8.084e-10
973.4	8.1063e-10
973.6	8.1287e-10
973.8	8.1512e-10
974.0	8.1737e-10
974.2	8.1963e-10
974.4	8.2189e-10
974.6	8.2416e-10
974.8	8.2644e-10
975.0	8.2872e-10
975.2	8.311e-10
975.4	8.3355e-10
975.6	8.3601e-10
975.8	8.3847e-10
976.0	8.4094e-10
976.2	8.4342e-10
976.4	8.459e-10
976.6	8.4839e-10
976.8	8.5089e-10
977.0	8.534e-10
977.2	9.8183e-10
977.4	1.1618e-09
977.6	1.3747e-09
977.8	1.6267e-09
978.0	1.9249e-09
978.2	2.2777e-09
978.4	2.6952e-09
978.6	3.1893e-09
978.8	3.7739e-09
979.0	4.3827e-09
979.2	3.7957e-09
979.4	3.2873e-09
979.6	2.847e-09
979.8	2.4656e-09
980.0	2.1354e-09
980.2	1.8494e-09
980.4	1.6016e-09
980.6	1.3871e-09
980.8	1.2013e-09
981.0	1.0404e-09
981.2	9.3806e-10
981.4	1.0533e-09
981.6	1.1827e-09
981.8	1.328e-09
982.0	1.4912e-09
982.2	1.6744e-09
982.4	1.8801e-09
982.6	2.1111e-09
982.8	2.3705e-09
983.0	2.6618e-09
983.2	2.741e-09
983.4	2.4582e-09
983.6	2.2046e-09
983.8	1.9771e-09
984.0	1.7731e-09
984.2	1.5901e-09
984.4	1.4261e-09
984.6	1.2789e-09
984.8	1.147e-09
985.0	1.0286e-09
985.2	1.1273e-09
985.4	1.4007e-09
985.6	1.7405e-09
985.8	2.1626e-09
986.0	2.6871e-09
986.2	3.3388e-09
986.4	4.1485e-09
986.6	5.1547e-09
986.8	6.4049e-09
987.0	7.9583e-09
987.2	6.8814e-09
987.4	5.5815e-09
987.6	4.5271e-09
987.8	3.6719e-09
988.0	2.9783e-09
988.2	2.4157e-09
988.4	1.9593e-09
988.6	1.5892e-09
988.8	1.289e-09
989.0	1.0647e-09
989.2	1.0695e-09
989.4	1.0743e-09
989.6	1.0791e-09
989.8	1.084e-09
990.0	1.0888e-09
990.2	1.0937e-09
990.4	1.0986e-09
990.6	1.1036e-09
990.8	1.1085e-09
991.0	1.1135e-09
991.2	1.1184e-09
991.4	1.1227e-09
991.6	1.127e-09
991.8	1.1313e-09
992.0	1.1357e-09
992.2	1.14e-09
992.4	1.1444e-09
992.6	1.1488e-09
992.8	1.1532e-09
993.0	1.1576e-09
993.2	1.1625e-09
993.4	1.1683e-09
993.6	1.1741e-09
993.8	1.18e-09
994.0	1.1859e-09
994.2	1.1918e-09
994.4	1.1977e-09
994.6	1.2037e-09
994.8	1.2097e-09
995.0	1.2158e-09
995.2	1.2218e-09
995.4	1.2279e-09
995.6	1.234e-09
995.8	1.2393e-09
996.0	1.2444e-09
996.2	1.2495e-09
996.4	1.2547e-09
996.6	1.2599e-09
996.8	1.2651e-09
997.0	1.2704e-09
997.2	1.2756e-09
997.4	1.2809e-09
997.6	1.3294e-09
997.8	1.7574e-09
998.0	2.3233e-09
998.2	3.0715e-09
998.4	4.0605e-09
998.6	5.368e-09
998.8	7.0966e-09
999.0	9.3818e-09
999.2	1.2403e-08
999.4	1.6397e-08
999.6	1.8184e-08
999.8	1.4757e-08
1000.0	1.1975e-08
1000.2	9.7184e-09
1000.4	7.8867e-09
1000.6	6.4002e-09
1000.8	5.1939e-09
1001.0	4.215e-09
1001.2	3.4205e-09
1001.4	2.7758e-09
1001.6	2.2526e-09
1001.8	1.8281e-09
1002.0	1.4835e-09
1002.2	1.4525e-09
1002.4	1.4591e-09
1002.6	1.4657e-09
1002.8	1.4723e-09
1003.0	1.4789e-09
1003.2	1.4856e-09
1003.4	1.4923e-09
1003.6	1.4991e-09
1003.8	1.5058e-09
1004.0	1.4971e-09
1004.2	1.3845e-09
1004.4	1.2804e-09
1004.6	1.1842e-09
1004.8	1.0951e-09
1005.0	1.0128e-09
1005.2	9.3667e-10
1005.4	8.6626e-10
1005.6	8.3935e-10
1005.8	8.4362e-10
1006.0	8.4791e-10
1006.2	8.5222e-10
1006.4	8.5655e-10
1006.6	8.6091e-10
1006.8	8.6528e-10
1007.0	8.6968e-10
1007.2	8.741e-10
1007.4	8.7855e-10
1007.6	8.8301e-10
1007.8	8.875e-10
1008.0	8.9201e-10
1008.2	8.9655e-10
1008.4	9.0111e-10
1008.6	9.0569e-10
1008.8	9.1029e-10
1009.0	9.1492e-10
1009.2	9.1957e-10
1009.4	9.2674e-10
1009.6	1.1146e-09
1009.8	1.3406e-09
1010.0	1.6123e-09
1010.2	1.9391e-09
1010.4	2.3322e-09
1010.6	2.805e-09
1010.8	3.3736e-09
1011.0	4.0575e-09
1011.2	4.8801e-09
1011.4	5.8693e-09
1011.6	7.0592e-09
1011.8	8.4902e-09
1012.0	1.0211e-08
1012.2	1.2281e-08
1012.4	1.4771e-08
1012.6	1.7765e-08
1012.8	2.1366e-08
1013.0	2.5698e-08
1013.2	3.0907e-08
1013.4	3.3749e-08
1013.6	3.326e-08
1013.8	3.2778e-08
1014.0	3.2303e-08
1014.2	3.1835e-08
1014.4	3.1373e-08
1014.6	3.0918e-08
1014.8	3.047e-08
1015.0	3.0029e-08
1015.2	2.9593e-08
1015.4	2.9164e-08
1015.6	2.8742e-08
1015.8	2.8325e-08
1016.0	2.7914e-08
1016.2	2.751e-08
1016.4	2.7111e-08
1016.6	2.6718e-08
1016.8	2.6331e-08
1017.0	2.5949e-08
1017.2	2.5573e-08
1017.4	2.2069e-08
1017.6	1.8954e-08
1017.8	1.6279e-08
1018.0	1.3981e-08
1018.2	1.2007e-08
1018.4	1.0312e-08
1018.6	8.8568e-09
1018.8	7.6067e-09
1019.0	6.533e-09
1019.2	5.6108e-09
1019.4	4.8188e-09
1019.6	4.1386e-09
1019.8	3.5545e-09
1020.0	3.0527e-09
1020.2	2.6218e-09
1020.4	2.2518e-09
1020.6	1.9339e-09
1020.8	1.6609e-09
1021.0	1.4265e-09
1021.2	1.3427e-09
1021.4	1.4103e-09
1021.6	1.4814e-09
1021.8	1.556e-09
1022.0	1.6344e-09
1022.2	1.7168e-09
1022.4	1.8033e-09
1022.6	1.8941e-09
1022.8	1.9896e-09
1023.0	2.0898e-09
1023.2	2.1951e-09
1023.4	2.3057e-09
1023.6	2.4219e-09
1023.8	2.5439e-09
1024.0	2.6721e-09
1024.2	2.8067e-09
1024.4	2.9481e-09
1024.6	3.0967e-09
1024.8	3.2527e-09
1025.0	3.4166e-09
1025.2	3.1127e-09
1025.4	2.8358e-09
1025.6	2.5836e-09
1025.8	2.3538e-09
1026.0	2.1444e-09
1026.2	1.9537e-09
1026.4	1.7799e-09
1026.6	1.6216e-09
1026.8	1.5971e-09
1027.0	1.6069e-09
1027.2	1.6168e-09
1027.4	1.6268e-09
1027.6	1.6368e-09
1027.8	1.6469e-09
1028.0	1.657e-09
1028.2	1.6672e-09
1028.4	1.6775e-09
1028.6	1.6878e-09
1028.8	1.6982e-09
1029.0	1.7086e-09
1029.2	1.7191e-09
1029.4	1.7297e-09
1029.6	1.7404e-09
1029.8	1.7511e-09
1030.0	1.7619e-09
1030.2	1.7727e-09
1030.4	1.7836e-09
1030.6	1.8904e-09
1030.8	2.3063e-09
1031.0	2.8137e-09
1031.2	3.4327e-09
1031.4	4.1878e-09
1031.6	5.1091e-09
1031.8	6.2331e-09
1032.0	7.6043e-09
1032.2	9.2772e-09
1032.4	1.1318e-08
1032.6	1.3808e-08
1032.8	1.6846e-08
1033.0	2.0551e-08
1033.2	2.5072e-08
1033.4	3.0588e-08
1033.6	3.7317e-08
1033.8	4.5527e-08
1034.0	5.5542e-08
1034.2	6.7761e-08
1034.4	8.2668e-08
1034.6	8.3218e-08
1034.8	7.897e-08
1035.0	7.4938e-08
1035.2	7.1112e-08
1035.4	6.7482e-08
1035.6	6.4037e-08
1035.8	6.0767e-08
1036.0	5.7665e-08
1036.2	5.4721e-08
1036.4	5.1927e-08
1036.6	4.9276e-08
1036.8	4.6761e-08
1037.0	4.4373e-08
1037.2	4.2108e-08
1037.4	3.9958e-08
1037.6	3.7918e-08
1037.8	3.5982e-08
1038.0	3.4145e-08
1038.2	3.2402e-08
1038.4	3.0175e-08
1038.6	2.6709e-08
1038.8	2.364e-08
1039.0	2.0924e-08
1039.2	1.852e-08
1039.4	1.6393e-08
1039.6	1.451e-08
1039.8	1.2843e-08
1040.0	1.1367e-08
1040.2	1.0061e-08
1040.4	8.9055e-09
1040.6	7.8824e-09
1040.8	6.9768e-09
1041.0	6.1753e-09
1041.2	5.4659e-09
1041.4	4.838e-09
1041.6	4.2822e-09
1041.8	3.7902e-09
1042.0	3.3548e-09
1042.2	2.9694e-09
1042.4	3.1089e-09
1042.6	3.4082e-09
1042.8	3.7363e-09
1043.0	4.0959e-09
1043.2	4.4902e-09
1043.4	4.9225e-09
1043.6	5.3964e-09
1043.8	5.9159e-09
1044.0	6.4854e-09
1044.2	7.1097e-09
1044.4	7.7941e-09
1044.6	8.5444e-09
1044.8	9.367e-09
1045.0	1.0269e-08
1045.2	9.0326e-09
1045.4	7.9453e-09
1045.6	6.9889e-09
1045.8	6.1476e-09
1046.0	5.4076e-09
1046.2	4.7567e-09
1046.4	4.1841e-09
1046.6	3.6805e-09
1046.8	3.6543e-09
1047.0	4.0227e-09
1047.2	4.4282e-09
1047.4	4.8745e-09
1047.6	5.3659e-09
1047.8	5.9068e-09
1048.0	6.5023e-09
1048.2	7.1577e-09
1048.4	7.8793e-09
1048.6	8.6735e-09
1048.8	9.5479e-09
1049.0	1.051e-08
1049.2	1.157e-08
1049.4	1.2736e-08
1049.6	1.402e-08
1049.8	1.5433e-08
1050.0	1.6989e-08
1050.2	1.8702e-08
1050.4	2.0587e-08
1050.6	2.2435e-08
1050.8	2.0573e-08
1051.0	1.8864e-08
1051.2	1.7298e-08
1051.4	1.5862e-08
1051.6	1.4545e-08
1051.8	1.3337e-08
1052.0	1.223e-08
1052.2	1.1214e-08
1052.4	1.0283e-08
1052.6	9.4291e-09
1052.8	8.6462e-09
1053.0	7.9283e-09
1053.2	7.27e-09
1053.4	6.6663e-09
1053.6	6.1128e-09
1053.8	5.6052e-09
1054.0	5.1398e-09
1054.2	4.713e-09
1054.4	4.3217e-09
1054.6	4.577e-09
1054.8	5.3922e-09
1055.0	6.3525e-09
1055.2	7.4838e-09
1055.4	8.8166e-09
1055.6	1.0387e-08
1055.8	1.2237e-08
1056.0	1.4416e-08
1056.2	1.6983e-08
1056.4	2.0008e-08
1056.6	2.3571e-08
1056.8	2.7769e-08
1057.0	3.2714e-08
1057.2	3.854e-08
1057.4	4.5404e-08
1057.6	5.3489e-08
1057.8	6.3016e-08
1058.0	7.4238e-08
1058.2	8.7459e-08
1058.4	1.0167e-07
1058.6	1.0609e-07
1058.8	1.1071e-07
1059.0	1.1553e-07
1059.2	1.2055e-07
1059.4	1.258e-07
1059.6	1.3127e-07
1059.8	1.3699e-07
1060.0	1.4295e-07
1060.2	1.4917e-07
1060.4	1.5566e-07
1060.6	1.6243e-07
1060.8	1.695e-07
1061.0	1.7688e-07
1061.2	1.8457e-07
1061.4	1.926e-07
1061.6	2.0098e-07
1061.8	2.0973e-07
1062.0	2.1886e-07
1062.2	2.2838e-07
1062.4	2.273e-07
1062.6	2.2066e-07
1062.8	2.1421e-07
1063.0	2.0795e-07
1063.2	2.0188e-07
1063.4	1.9598e-07
1063.6	1.9025e-07
1063.8	1.8469e-07
1064.0	1.7929e-07
1064.2	1.7405e-07
1064.4	1.6897e-07
1064.6	1.6403e-07
1064.8	1.5924e-07
1065.0	1.5459e-07
1065.2	1.5447e-07
1065.4	1.5435e-07
1065.6	1.5424e-07
1065.8	1.5412e-07
1066.0	1.5401e-07
1066.2	1.5389e-07
1066.4	1.5378e-07
1066.6	1.5366e-07
1066.8	1.4673e-07
1067.0	1.2469e-07
1067.2	1.0595e-07
1067.4	9.0028e-08
1067.6	7.65e-08
1067.8	6.5005e-08
1068.0	5.5237e-08
1068.2	4.6937e-08
1068.4	3.9884e-08
1068.6	3.389e-08
1068.8	2.8798e-08
1069.0	2.447e-08
1069.2	2.0793e-08
1069.4	1.7669e-08
1069.6	1.5014e-08
1069.8	1.2758e-08
1070.0	1.0841e-08
1070.2	9.2117e-09
1070.4	7.8275e-09
1070.6	6.6513e-09
1070.8	7.4455e-09
1071.0	8.8545e-09
1071.2	1.053e-08
1071.4	1.2523e-08
1071.6	1.4893e-08
1071.8	1.7711e-08
1072.0	2.1063e-08
1072.2	2.5049e-08
1072.4	2.9789e-08
1072.6	3.5426e-08
1072.8	4.213e-08
1073.0	5.0103e-08
1073.2	5.9585e-08
1073.4	7.0861e-08
1073.6	8.427e-08
1073.8	1.0022e-07
1074.0	1.1918e-07
1074.2	1.4174e-07
1074.4	1.6856e-07
1074.6	1.7918e-07
1074.8	1.5797e-07
1075.0	1.3927e-07
1075.2	1.2279e-07
1075.4	1.0825e-07
1075.6	9.5439e-08
1075.8	8.4143e-08
1076.0	7.4183e-08
1076.2	6.5403e-08
1076.4	5.7661e-08
1076.6	5.0836e-08
1076.8	4.4819e-08
1077.0	3.9514e-08
1077.2	3.4837e-08
1077.4	3.0714e-08
1077.6	2.7078e-08
1077.8	2.3873e-08
1078.0	2.1047e-08
1078.2	1.8556e-08
1078.4	1.636e-08
1078.6	1.5787e-08
1078.8	1.5323e-08
1079.0	1.4872e-08
1079.2	1.4434e-08
1079.4	1.401e-08
1079.6	1.3598e-08
1079.8	1.3198e-08
1080.0	1.2809e-08
1080.2	1.2433e-08
1080.4	1.2067e-08
1080.6	1.1712e-08
1080.8	1.1367e-08
1081.0	1.1033e-08
1081.2	1.0708e-08
1081.4	1.0393e-08
1081.6	1.0087e-08
1081.8	9.7907e-09
1082.0	9.5027e-09
1082.2	9.2231e-09
1082.4	9.6923e-09
1082.6	1.0977e-08
1082.8	1.2432e-08
1083.0	1.408e-08
1083.2	1.5946e-08
1083.4	1.8059e-08
1083.6	2.0453e-08
1083.8	2.3164e-08
1084.0	2.6234e-08
1084.2	2.9712e-08
1084.4	3.365e-08
1084.6	3.811e-08
1084.8	4.3161e-08
1085.0	4.8882e-08
1085.2	5.5361e-08
1085.4	6.2699e-08
1085.6	7.1009e-08
1085.8	8.0421e-08
1086.0	9.108e-08
1086.2	1.0264e-07
1086.4	1.1054e-07
1086.6	1.1906e-07
1086.8	1.2823e-07
1087.0	1.3811e-07
1087.2	1.4875e-07
1087.4	1.6021e-07
1087.6	1.7255e-07
1087.8	1.8585e-07
1088.0	2.0016e-07
1088.2	2.1559e-07
1088.4	2.3219e-07
1088.6	2.5008e-07
1088.8	2.6935e-07
1089.0	2.901e-07
1089.2	3.1245e-07
1089.4	3.3652e-07
1089.6	3.6245e-07
1089.8	3.9037e-07
1090.0	4.2044e-07
1090.2	4.5926e-07
1090.4	5.0167e-07
1090.6	5.4798e-07
1090.8	5.9858e-07
1091.0	6.5384e-07
1091.2	7.1421e-07
1091.4	7.8015e-07
1091.6	8.5218e-07
1091.8	9.3086e-07
1092.0	9.637e-07
1092.2	9.946e-07
1092.4	1.0265e-06
1092.6	1.0594e-06
1092.8	1.0933e-06
1093.0	1.1284e-06
1093.2	1.1646e-06
1093.4	1.2019e-06
1093.6	1.2404e-06
1093.8	1.2802e-06
1094.0	1.3212e-06
1094.2	1.3636e-06
1094.4	1.4073e-06
1094.6	1.4524e-06
1094.8	1.499e-06
1095.0	1.547e-06
1095.2	1.5966e-06
1095.4	1.6478e-06
1095.6	1.7006e-06
1095.8	1.6977e-06
1096.0	1.6436e-06
1096.2	1.5911e-06
1096.4	1.5404e-06
1096.6	1.4913e-06
1096.8	1.4437e-06
1097.0	1.3976e-06
1097.2	1.3531e-06
1097.4	1.3099e-06
1097.6	1.2681e-06
1097.8	1.2277e-06
1098.0	1.1885e-06
1098.2	1.1506e-06
1098.4	1.1139e-06
1098.6	1.0784e-06
1098.8	1.044e-06
1099.0	1.0107e-06
1099.2	9.7843e-07
1099.4	9.4722e-07
1099.6	9.2319e-07
1099.8	9.5007e-07
1100.0	9.7773e-07
1100.2	1.0062e-06
1100.4	1.0355e-06
1100.6	1.0657e-06
1100.8	1.0967e-06
1101.0	1.1286e-06
1101.2	1.1615e-06
1101.4	1.1953e-06
1101.6	1.2301e-06
1101.8	1.2659e-06
1102.0	1.3028e-06
1102.2	1.3407e-06
1102.4	1.3798e-06
1102.6	1.4199e-06
1102.8	1.4613e-06
1103.0	1.5038e-06
1103.2	1.5476e-06
1103.4	1.5927e-06
1103.6	1.6532e-06
1103.8	1.7218e-06
1104.0	1.7933e-06
1104.2	1.8678e-06
1104.4	1.9454e-06
1104.6	2.0262e-06
1104.8	2.1103e-06
1105.0	2.1979e-06
1105.2	2.2892e-06
1105.4	2.3843e-06
1105.6	2.4833e-06
1105.8	2.5865e-06
1106.0	2.6939e-06
1106.2	2.8057e-06
1106.4	2.9223e-06
1106.6	3.0436e-06
1106.8	3.17e-06
1107.0	3.3017e-06
1107.2	3.4388e-06
1107.4	3.4998e-06
1107.6	3.3951e-06
1107.8	3.2936e-06
1108.0	3.195e-06
1108.2	3.0995e-06
1108.4	3.0067e-06
1108.6	2.9168e-06
1108.8	2.8295e-06
1109.0	2.7449e-06
1109.2	2.6628e-06
1109.4	2.5831e-06
1109.6	2.5058e-06
1109.8	2.4308e-06
1110.0	2.3581e-06
1110.2	2.2876e-06
1110.4	2.2191e-06
1110.6	2.1528e-06
1110.8	2.0883e-06
1111.0	2.0259e-06
1111.2	1.9653e-06
1111.4	2.0448e-06
1111.6	2.1354e-06
1111.8	2.23e-06
1112.0	2.3287e-06
1112.2	2.4319e-06
1112.4	2.5397e-06
1112.6	2.6522e-06
1112.8	2.7697e-06
1113.0	2.8923e-06
1113.2	3.0205e-06
1113.4	3.1543e-06
1113.6	3.294e-06
1113.8	3.44e-06
1114.0	3.5923e-06
1114.2	3.7515e-06
1114.4	3.9177e-06
1114.6	4.0912e-06
1114.8	4.2725e-06
1115.0	4.4618e-06
1115.2	4.5324e-06
1115.4	4.5149e-06
1115.6	4.4974e-06
1115.8	4.48e-06
1116.0	4.4626e-06
1116.2	4.4453e-06
1116.4	4.4281e-06
1116.6	4.4109e-06
1116.8	4.3938e-06
1117.0	4.3768e-06
1117.2	4.3598e-06
1117.4	4.3429e-06
1117.6	4.3261e-06
1117.8	4.3093e-06
1118.0	4.2926e-06
1118.2	4.276e-06
1118.4	4.2594e-06
1118.6	4.2429e-06
1118.8	4.2265e-06
1119.0	4.4051e-06
1119.2	5.3429e-06
1119.4	6.4804e-06
1119.6	7.86e-06
1119.8	9.5332e-06
1120.0	1.1563e-05
1120.2	1.4024e-05
1120.4	1.701e-05
1120.6	2.0631e-05
1120.8	2.5023e-05
1121.0	3.035e-05
1121.2	3.0413e-05
1121.4	3.0475e-05
1121.6	3.0538e-05
1121.8	3.06e-05
1122.0	3.0656e-05
1122.2	3.0452e-05
1122.4	3.0249e-05
1122.6	3.0047e-05
1122.8	2.9846e-05
1123.0	2.9649e-05
1123.2	2.9627e-05
1123.4	2.9606e-05
1123.6	2.9585e-05
1123.8	2.9563e-05
1124.0	2.9551e-05
1124.2	2.9823e-05
1124.4	3.0098e-05
1124.6	3.0376e-05
1124.8	3.0656e-05
1125.0	3.0935e-05
1125.2	3.0764e-05
1125.4	3.0593e-05
1125.6	3.0424e-05
1125.8	3.0256e-05
1126.0	3.0092e-05
1126.2	3.0027e-05
1126.4	2.9962e-05
1126.6	2.9897e-05
1126.8	2.9832e-05
1127.0	2.9768e-05
1127.2	2.9765e-05
1127.4	2.9761e-05
1127.6	2.9758e-05
1127.8	2.9755e-05
1128.0	2.975e-05
1128.2	2.9722e-05
1128.4	2.9693e-05
1128.6	2.9665e-05
1128.8	2.9636e-05
1129.0	2.961e-05
1129.2	2.967e-05
1129.4	2.9731e-05
1129.6	2.9792e-05
1129.8	2.9853e-05
1130.0	2.9907e-05
1130.2	2.979e-05
1130.4	2.9674e-05
1130.6	2.9557e-05
1130.8	2.9442e-05
1131.0	2.9332e-05
1131.2	2.9419e-05
1131.4	2.9507e-05
1131.6	2.9596e-05
1131.8	2.9684e-05
1132.0	2.9773e-05
1132.2	2.9894e-05
1132.4	3.0015e-05
1132.6	3.0137e-05
1132.8	3.0259e-05
1133.0	3.0378e-05
1133.2	3.0396e-05
1133.4	3.0414e-05
1133.6	3.0433e-05
1133.8	3.0451e-05
1134.0	3.0472e-05
1134.2	3.0592e-05
1134.4	3.0712e-05
1134.6	3.0834e-05
1134.8	3.0955e-05
1135.0	3.1079e-05
1135.2	3.1249e-05
1135.4	3.142e-05
1135.6	3.1592e-05
1135.8	3.1765e-05
1136.0	3.2041e-05
1136.2	3.5856e-05
1136.4	4.0125e-05
1136.6	4.4903e-05
1136.8	5.0249e-05
1137.0	5.6155e-05
1137.2	5.7412e-05
1137.4	5.8696e-05
1137.6	6.0009e-05
1137.8	6.1351e-05
1138.0	6.3054e-05
1138.2	7.2432e-05
1138.4	8.3205e-05
1138.6	9.558e-05
1138.8	1.098e-04
1139.0	1.2606e-04
1139.2	1.4104e-04
1139.4	1.578e-04
1139.6	1.7655e-04
1139.8	1.9752e-04
1140.0	2.2116e-04
1140.2	2.5118e-04
1140.4	2.8528e-04
1140.6	3.2401e-04
1140.8	3.68e-04
1141.0	4.1788e-04
1141.2	4.7234e-04
1141.4	5.3389e-04
1141.6	6.0346e-04
1141.8	6.821e-04
1142.0	7.712e-04
1142.2	8.7989e-04
1142.4	0.001
1142.6	0.00115
1142.8	0.00131
1143.0	0.00149
1143.2	0.00171
1143.4	0.00195
1143.6	0.00223
1143.8	0.00256
1144.0	0.00293
1144.2	0.00338
1144.4	0.00391
1144.6	0.00452
1144.8	0.00523
1145.0	0.00605
1145.2	0.00686
1145.4	0.00779
1145.6	0.00884
1145.8	0.01003
1146.0	0.01137
1146.2	0.01239
1146.4	0.01349
1146.6	0.0147
1146.8	0.01601
1147.0	0.01738
1147.2	0.01767
1147.4	0.01797
1147.6	0.01828
1147.8	0.01859
1148.0	0.01889
1148.2	0.01864
1148.4	0.0184
1148.6	0.01816
1148.8	0.01793
1149.0	0.01769
1149.2	0.01733
1149.4	0.01697
1149.6	0.01662
1149.8	0.01628
1150.0	0.01595
1150.2	0.01587
1150.4	0.01579
1150.6	0.01571
1150.8	0.01563
1151.0	0.01555
1151.2	0.01561
1151.4	0.01568
1151.6	0.01574
1151.8	0.0158
1152.0	0.01588
1152.2	0.01621
1152.4	0.01654
1152.6	0.01689
1152.8	0.01723
1153.0	0.01759
1153.2	0.01811
1153.4	0.01863
1153.6	0.01918
1153.8	0.01973
1154.0	0.02032
1154.2	0.02126
1154.4	0.02224
1154.6	0.02327
1154.8	0.02434
1155.0	0.02547
1155.2	0.02686
1155.4	0.02833
1155.6	0.02987
1155.8	0.0315
1156.0	0.03323
1156.2	0.03565
1156.4	0.03824
1156.6	0.04102
1156.8	0.04401
1157.0	0.04722
1157.2	0.0512
1157.4	0.0555
1157.6	0.06018
1157.8	0.06524
1158.0	0.07074
1158.2	0.07803
1158.4	0.08607
1158.6	0.09495
1158.8	0.10473
1159.0	0.11553
1159.2	0.1291
1159.4	0.14426
1159.6	0.16121
1159.8	0.18014
1160.0	0.20135
1160.2	0.22635
1160.4	0.25446
1160.6	0.28605
1160.8	0.32157
1161.0	0.36106
1161.2	0.39488
1161.4	0.43187
1161.6	0.47233
1161.8	0.51658
1162.0	0.56335
1162.2	0.57351
1162.4	0.58384
1162.6	0.59437
1162.8	0.60508
1163.0	0.61432
1163.2	0.58881
1163.4	0.56436
1163.6	0.54092
1163.8	0.51845
1164.0	0.49675
1164.2	0.47202
1164.4	0.44852
1164.6	0.42618
1164.8	0.40496
1165.0	0.38493
1165.2	0.36875
1165.4	0.35325
1165.6	0.3384
1165.8	0.32417
1166.0	0.31074
1166.2	0.30234
1166.4	0.29416
1166.6	0.2862
1166.8	0.27846
1167.0	0.27112
1167.2	0.26786
1167.4	0.26464
1167.6	0.26146
1167.8	0.25832
1168.0	0.25535
1168.2	0.2551
1168.4	0.25485
1168.6	0.25461
1168.8	0.25436
1169.0	0.25427
1169.2	0.25752
1169.4	0.26081
1169.6	0.26415
1169.8	0.26753
1170.0	0.27107
1170.2	0.27707
1170.4	0.2832
1170.6	0.28946
1170.8	0.29587
1171.0	0.30243
1171.2	0.31187
1171.4	0.32161
1171.6	0.33165
1171.8	0.34201
1172.0	0.35274
1172.2	0.36709
1172.4	0.38201
1172.6	0.39755
1172.8	0.41371
1173.0	0.43059
1173.2	0.45027
1173.4	0.47084
1173.6	0.49235
1173.8	0.51485
1174.0	0.53841
1174.2	0.56414
1174.4	0.59111
1174.6	0.61936
1174.8	0.64896
1175.0	0.67983
1175.2	0.70807
1175.4	0.73748
1175.6	0.76811
1175.8	0.80001
1176.0	0.83267
1176.2	0.85416
1176.4	0.87621
1176.6	0.89882
1176.8	0.92202
1177.0	0.94563
1177.2	0.95052
1177.4	0.95544
1177.6	0.96039
1177.8	0.96536
1178.0	0.97008
1178.2	0.95683
1178.4	0.94376
1178.6	0.93087
1178.8	0.91815
1179.0	0.90535
1179.2	0.88274
1179.4	0.86069
1179.6	0.8392
1179.8	0.81824
1180.0	0.79772
1180.2	0.77525
1180.4	0.75342
1180.6	0.73221
1180.8	0.71159
1181.0	0.69168
1181.2	0.67461
1181.4	0.65797
1181.6	0.64173
1181.8	0.6259
1182.0	0.61049
1182.2	0.59771
1182.4	0.58519
1182.6	0.57293
1182.8	0.56094
1183.0	0.54927
1183.2	0.54049
1183.4	0.53185
1183.6	0.52335
1183.8	0.51499
1184.0	0.50693
1184.2	0.50263
1184.4	0.49837
1184.6	0.49415
1184.8	0.48996
1185.0	0.48585
1185.2	0.48464
1185.4	0.48344
1185.6	0.48223
1185.8	0.48103
1186.0	0.47988
1186.2	0.48028
1186.4	0.48068
1186.6	0.48108
1186.8	0.48149
1187.0	0.48199
1187.2	0.48474
1187.4	0.4875
1187.6	0.49027
1187.8	0.49307
1188.0	0.49591
1188.2	0.50111
1188.4	0.50637
1188.6	0.51169
1188.8	0.51706
1189.0	0.52251
1189.2	0.52901
1189.4	0.53559
1189.6	0.54225
1189.8	0.54899
1190.0	0.55578
1190.2	0.56175
1190.4	0.56778
1190.6	0.57388
1190.8	0.58004
1191.0	0.58626
1191.2	0.59218
1191.4	0.59815
1191.6	0.60419
1191.8	0.61028
1192.0	0.61635
1192.2	0.62046
1192.4	0.6246
1192.6	0.62877
1192.8	0.63296
1193.0	0.63711
1193.2	0.63766
1193.4	0.63821
1193.6	0.63876
1193.8	0.63931
1194.0	0.63971
1194.2	0.63667
1194.4	0.63364
1194.6	0.63062
1194.8	0.62762
1195.0	0.62457
1195.2	0.61845
1195.4	0.61238
1195.6	0.60638
1195.8	0.60043
1196.0	0.59443
1196.2	0.58555
1196.4	0.57679
1196.6	0.56816
1196.8	0.55967
1197.0	0.55128
1197.2	0.54201
1197.4	0.53289
1197.6	0.52392
1197.8	0.51511
1198.0	0.50644
1198.2	0.4978
1198.4	0.4893
1198.6	0.48095
1198.8	0.47274
1199.0	0.46469
1199.2	0.45768
1199.4	0.45078
1199.6	0.44398
1199.8	0.43728
1200.0	0.43068
